File: database/experiments/MU/xrd/930(921)_ppo_chloranil_liftfsi_for_xrd_5/xrd.csv
x,y
10,27044.7
10.27,28709
10.54,29766.5
10.81,29801.2
11.08,27564.8
11.35,28795.7
11.62,29333.1
11.89,30304
12.16,30806.7
12.43,30113.3
12.7,32523
12.97,32002.9
13.24,30720
13.51,31500.2
13.78,33424.5
14.05,31274.8
14.32,32211
14.59,32159
14.86,33008.4
15.13,31794.9
15.4,33961.9
15.67,32228.3
15.94,31032.1
16.21,29627.9
16.48,31014.8
16.75,29835.9
17.02,31482.8
17.29,31725.6
17.56,28449
17.83,28951.7
18.1,26628.7
18.37,29125.1
18.64,27582.2
18.91,28865.1
19.18,32002.9
19.45,27512.8
19.72,26368.6
19.99,24548.3
20.26,24912.4
20.53,26073.9
20.8,24253.6
21.07,24704.3
21.34,25571.1
21.61,25276.4
21.88,25328.4
22.15,24444.3
22.42,23022.7
22.69,23698.8
22.96,24062.9
23.23,23924.2
23.5,23924.2
23.77,23560.1
24.04,22936
24.31,21913.2
24.58,25553.8
24.85,23161.4
25.12,21289.1
25.39,21011.7
25.66,20266.2
25.93,19867.5
26.2,19382.1
26.47,17873.8
26.74,18653.9
27.01,17284.4
27.28,18567.3
27.55,17752.4
27.82,16972.3
28.09,16712.3
28.36,15793.4
28.63,16608.2
28.9,17457.7
29.17,16816.3
29.44,15966.8
29.71,16070.8
29.98,15256
30.25,15308
30.52,15273.3
30.79,14614.6
31.06,14701.2
31.33,14059.8
31.6,14163.8
31.87,14233.2
32.14,14215.8
32.41,13470.4
32.68,13349
32.95,13522.4
33.22,14770.6
33.49,14649.2
33.76,13626.4
34.03,13245
34.3,13574.4
34.57,12759.6
34.84,12568.9
35.11,12152.8
35.38,12239.5
35.65,12707.6
35.92,11598
36.19,12066.1
36.46,12031.4
36.73,11892.8
37,12066.1
37.27,11338
37.54,11355.3
37.81,11615.4
38.08,13227.7
38.35,12880.9
38.62,11511.3
38.89,11598
39.16,10800.6
39.43,10471.2
39.7,10211.1
39.97,10661.9
40.24,10609.9
40.51,9951.08
40.78,10471.2
41.05,10124.4
41.32,10731.2
41.59,11130
41.86,10193.8
42.13,9985.75
42.4,10939.3
42.67,9413.65
42.94,10471.2
43.21,10367.1
43.48,10159.1
43.75,10505.8
44.02,9535
44.29,9829.72
44.56,9743.04
44.83,9483
45.1,9933.74
45.37,8876.22
45.64,8737.53
45.91,8165.43
46.18,9743.04
46.45,9153.6
46.72,8945.57
46.99,9170.94
47.26,8650.85
47.53,9153.6
47.8,9344.3
48.07,8408.14
48.34,8425.48
48.61,7853.38
48.88,8442.81
49.15,8061.41
49.42,10141.8
49.69,9465.66
49.96,7888.05
50.23,7766.69
50.5,7818.7
50.77,7575.99
51.04,7263.94
51.31,7211.93
51.58,8598.84
51.85,7732.02
52.12,7159.92
52.39,6622.49
52.66,6657.17
52.93,6379.78
53.2,6310.44
53.47,6605.16
53.74,5721
54.01,6050.39
54.28,6067.73
54.55,6223.76
54.82,5773.01
55.09,5651.66
55.36,5287.59
55.63,5668.99
55.9,5842.36
56.17,4836.85
56.44,4663.48
56.71,5564.98
56.98,5322.27
57.25,4368.77
57.52,4438.11
57.79,4958.2
58.06,4906.19
58.33,4663.48
58.6,5131.57
58.87,4784.84
59.14,4975.54
59.41,4888.86
59.68,4472.78
59.95,4646.15
60.22,4611.47
60.49,4594.14
60.76,4351.43
61.03,3814
61.3,4888.86
61.57,4074.05
61.84,3866.01
62.11,3970.03
62.38,4126.06
62.65,4594.14
62.92,4126.06
63.19,4594.14
63.46,4195.4
63.73,4004.7
64,3814
64.27,3900.68
64.54,4299.42
64.81,3831.34
65.08,3970.03
65.35,4646.15
65.62,4420.77
65.89,4334.09
66.16,4039.37
66.43,3640.64
66.7,3709.98
66.97,4022.04
67.24,4004.7
67.51,3501.95
67.78,3900.68
68.05,4108.72
68.32,3709.98
68.59,3553.96
68.86,3779.33
69.13,3675.31
69.4,3259.24
69.67,3588.63
69.94,3831.34
70.21,3571.29
70.48,3952.69
70.75,3501.95
71.02,3241.9
71.29,3640.64
71.56,3380.59
71.83,3363.26
72.1,3380.59
72.37,3224.56
72.64,3675.31
72.91,3588.63
73.18,3207.23
73.45,3484.61
73.72,3553.96
73.99,3900.68
74.26,4108.72
74.53,4143.39
74.8,3883.35
75.07,4108.72
75.34,3779.33
75.61,4056.71
75.88,4819.51
76.15,7159.92
76.42,6761.18
76.69,5616.98
76.96,3918.02
77.23,4022.04
77.5,4403.44
77.77,4056.71
78.04,4594.14
78.31,3761.99
78.58,4351.43
78.85,4022.04
79.12,3970.03
79.39,4334.09
79.66,4368.77
79.93,4108.72
80.2,4247.41
80.47,3814
80.74,4368.77
81.01,3952.69
81.28,3796.67
81.55,3848.67
81.82,4230.07
82.09,3588.63
82.36,4195.4
82.63,3814
82.9,3796.67
83.17,3709.98
83.44,4091.38
83.71,3883.35
83.98,4178.07
84.25,3363.26
84.52,3779.33
84.79,3866.01
85.06,3467.27
85.33,3761.99
85.6,3224.56
85.87,3501.95
86.14,4039.37
86.41,3432.6
86.68,3345.92
86.95,3553.96
87.22,3744.66
87.49,3432.6
87.76,3276.57
88.03,3207.23
88.3,3259.24
88.57,3467.27
88.84,3241.9
89.11,3709.98
89.38,3103.21
89.65,3345.92
89.92,3553.96
90,3952.69