File: program/database/experiments/MU/xrd/1102/parallel/liftfsi/xrd/100.TXT
Sample
Comments
Filename	C:\Data\西出研\梅木\20211102オペ\LiFTFSI_03_0001_0099-4_C_2θ.raw
Goniometer	SmartLab(In-plane)
Attachment	標準Zステージ
Monochromater	None
X	0
Y	0
Z	0.00908
ScanningMode	2Theta
ScanningType	Continuos Scanning
X-Ray	40kV/30mA
入射スリット	0.300mm
受光スリット1	20.000mm
受光スリット2	20.000mm
None
Start	5
Stop	60
Step	0.02
Speed	21.6746
Theta	0
5	3811.11
5.2	3558.24
5.4	2980.25
5.6	3449.87
5.8	3287.31
6	3124.75
6.2	3215.06
6.4	3070.56
6.6	3449.87
6.8	3142.81
7	2926.07
7.2	3052.5
7.4	3485.99
7.6	3215.06
7.8	2853.82
8	3233.12
8.2	2926.07
8.4	3359.56
8.6	2926.07
8.8	2871.88
9	2980.25
9.2	3395.68
9.4	2691.26
9.6	3377.62
9.8	2673.2
10	2637.07
10.2	3034.44
10.4	2528.7
10.6	2582.89
10.8	2745.45
11	2962.19
11.2	2709.32
11.4	2781.57
11.6	2113.27
11.8	2456.45
12	2221.64
12.2	2709.32
12.4	3016.38
12.6	2673.2
12.8	2691.26
13	2582.89
13.2	2185.52
13.4	2655.14
13.6	2221.64
13.8	2763.51
14	2149.4
14.2	2420.33
14.4	2510.64
14.6	2095.21
14.8	2167.46
15	2727.38
15.2	2330.02
15.4	2113.27
15.6	2402.27
15.8	2619.01
16	3359.56
16.2	2293.89
16.4	2402.27
16.6	2275.83
16.8	2077.15
17	2059.08
17.2	2275.83
17.4	2203.58
17.6	2203.58
17.8	3016.38
18	5761.82
18.2	2420.33
18.4	5256.08
18.6	2348.08
18.8	2149.4
19	2492.58
19.2	5761.82
19.4	2004.9
19.6	2167.46
19.8	2022.96
20	2600.95
20.2	1806.21
20.4	1824.28
20.6	2149.4
20.8	2077.15
21	7549.98
21.2	1896.53
21.4	1517.22
21.6	2113.27
21.8	1715.9
22	1589.47
22.2	1715.9
22.4	1625.59
22.6	2077.15
22.8	1625.59
23	1481.1
23.2	1444.97
23.4	1788.15
23.6	1553.34
23.8	1228.23
24	1715.9
24.2	1444.97
24.4	1318.54
24.6	1354.66
24.8	1372.72
25	1174.04
25.2	2041.02
25.4	3504.06
25.6	4389.1
25.8	1228.23
26	1553.34
26.2	2203.58
26.4	1372.72
26.6	1354.66
26.8	1192.1
27	1065.67
27.2	1444.97
27.4	4226.54
27.6	1589.47
27.8	1517.22
28	1372.72
28.2	1029.54
28.4	1011.48
28.6	921.169
28.8	939.232
29	1047.6
29.2	1083.73
29.4	957.294
29.6	776.672
29.8	1408.85
30	632.175
30.2	1011.48
30.4	1571.41
30.6	758.61
30.8	921.169
31	1011.48
31.2	1192.1
31.4	957.294
31.6	921.169
31.8	704.424
32	722.486
32.2	975.356
32.4	1282.41
32.6	1444.97
32.8	1390.79
33	812.797
33.2	668.299
33.4	885.045
33.6	1011.48
33.8	885.045
34	939.232
34.2	704.424
34.4	740.548
34.6	577.989
34.8	776.672
35	632.175
35.2	866.983
35.4	686.362
35.6	397.367
35.8	848.921
36	885.045
36.2	487.678
36.4	668.299
36.6	903.107
36.8	1137.92
37	1047.6
37.2	794.734
37.4	830.859
37.6	397.367
37.8	1083.73
38	722.486
38.2	1029.54
38.4	577.989
38.6	632.175
38.8	812.797
39	939.232
39.2	1481.1
39.4	704.424
39.6	505.74
39.8	559.927
40	668.299
40.2	415.429
40.4	433.492
40.6	523.802
40.8	288.994
41	469.616
41.2	704.424
41.4	740.548
41.6	722.486
41.8	722.486
42	361.243
42.2	451.554
42.4	487.678
42.6	577.989
42.8	794.734
43	596.051
43.2	433.492
43.4	361.243
43.6	614.113
43.8	451.554
44	288.994
44.2	433.492
44.4	415.429
44.6	469.616
44.8	505.74
45	361.243
45.2	487.678
45.4	343.181
45.6	270.932
45.8	343.181
46	397.367
46.2	541.864
46.4	379.305
46.6	415.429
46.8	307.056
47	379.305
47.2	523.802
47.4	433.492
47.6	288.994
47.8	415.429
48	307.056
48.2	415.429
48.4	288.994
48.6	397.367
48.8	234.808
49	270.932
49.2	343.181
49.4	252.87
49.6	379.305
49.8	397.367
50	252.87
50.2	451.554
50.4	505.74
50.6	469.616
50.8	379.305
51	288.994
51.2	361.243
51.4	379.305
51.6	288.994
51.8	234.808
52	379.305
52.2	307.056
52.4	415.429
52.6	343.181
52.8	379.305
53	433.492
53.2	252.87
53.4	361.243
53.6	234.808
53.8	288.994
54	397.367
54.2	541.864
54.4	559.927
54.6	361.243
54.8	361.243
55	433.492
55.2	180.621
55.4	325.119
55.6	288.994
55.8	397.367
56	288.994
56.2	343.181
56.4	343.181
56.6	433.492
56.8	559.927
57	198.684
57.2	234.808
57.4	198.684
57.6	325.119
57.8	252.87
58	343.181
58.2	270.932
58.4	270.932
58.6	307.056
58.8	307.056
59	234.808
59.2	325.119
59.4	288.994
59.6	433.492
59.8	379.305
60	234.808