File: program/database/experiments/MU/xrd/1102/parallel/liftfsi/xrd/50.TXT
Sample
Comments
Filename	C:\Data\西出研\梅木\20211102オペ\LiFTFSI_01_0001_0050-0_C_2θ.raw
Goniometer	SmartLab(In-plane)
Attachment	標準Zステージ
Monochromater	None
X	0
Y	0
Z	0.00908
ScanningMode	2Theta
ScanningType	Continuos Scanning
X-Ray	40kV/30mA
入射スリット	0.300mm
受光スリット1	20.000mm
受光スリット2	20.000mm
None
Start	5
Stop	60
Step	0.02
Speed	21.6746
Theta	0
5	2998.32
5.2	3395.68
5.4	3160.88
5.6	3395.68
5.8	3124.75
6	3160.88
6.2	2962.19
6.4	2871.88
6.6	3034.44
6.8	3034.44
7	2871.88
7.2	3016.38
7.4	2817.69
7.6	3215.06
7.8	3287.31
8	2853.82
8.2	2655.14
8.4	2709.32
8.6	3034.44
8.8	2998.32
9	3774.99
9.2	3251.19
9.4	3395.68
9.6	2817.69
9.8	2998.32
10	2817.69
10.2	2582.89
10.4	3088.63
10.6	2619.01
10.8	2709.32
11	2980.25
11.2	2817.69
11.4	2745.45
11.6	2330.02
11.8	3016.38
12	2835.76
12.2	2619.01
12.4	2691.26
12.6	3233.12
12.8	2402.27
13	2257.77
13.2	2835.76
13.4	2384.2
13.6	2311.95
13.8	2167.46
14	2077.15
14.2	2348.08
14.4	2474.51
14.6	2600.95
14.8	2402.27
15	2799.63
15.2	2239.71
15.4	2185.52
15.6	2059.08
15.8	2149.4
16	2655.14
16.2	2727.38
16.4	2077.15
16.6	1914.59
16.8	1950.71
17	1824.28
17.2	1950.71
17.4	2131.33
17.6	1860.4
17.8	2022.96
18	7459.67
18.2	2348.08
18.4	2456.45
18.6	6412.06
18.8	2275.83
19	1842.34
19.2	3576.31
19.4	2528.7
19.6	1824.28
19.8	1878.46
20	2077.15
20.2	1986.84
20.4	1535.28
20.6	2022.96
20.8	1968.77
21	3720.8
21.2	2311.95
21.4	1752.03
21.6	1914.59
21.8	2095.21
22	1950.71
22.2	1733.97
22.4	1625.59
22.6	1571.41
22.8	2004.9
23	1625.59
23.2	2221.64
23.4	2095.21
23.6	1444.97
23.8	1444.97
24	1481.1
24.2	1535.28
24.4	1318.54
24.6	1408.85
24.8	1300.47
25	1282.41
25.2	1444.97
25.4	2727.38
25.6	3233.12
25.8	3413.75
26	1571.41
26.2	1589.47
26.4	1968.77
26.6	1155.98
26.8	1282.41
27	939.232
27.2	1047.6
27.4	1842.34
27.6	4352.98
27.8	1210.16
28	1354.66
28.2	1228.23
28.4	1228.23
28.6	957.294
28.8	1029.54
29	903.107
29.2	885.045
29.4	830.859
29.6	939.232
29.8	812.797
30	1210.16
30.2	939.232
30.4	812.797
30.6	1065.67
30.8	957.294
31	957.294
31.2	740.548
31.4	1137.92
31.6	866.983
31.8	650.237
32	632.175
32.2	758.61
32.4	1264.35
32.6	1029.54
32.8	957.294
33	1390.79
33.2	1336.6
33.4	523.802
33.6	794.734
33.8	830.859
34	885.045
34.2	614.113
34.4	614.113
34.6	505.74
34.8	668.299
35	794.734
35.2	559.927
35.4	415.429
35.6	541.864
35.8	614.113
36	704.424
36.2	722.486
36.4	559.927
36.6	830.859
36.8	1174.04
37	632.175
37.2	1390.79
37.4	577.989
37.6	704.424
37.8	433.492
38	1101.79
38.2	1047.6
38.4	794.734
38.6	523.802
38.8	686.362
39	559.927
39.2	1300.47
39.4	1354.66
39.6	686.362
39.8	559.927
40	704.424
40.2	668.299
40.4	252.87
40.6	451.554
40.8	505.74
41	614.113
41.2	288.994
41.4	505.74
41.6	650.237
41.8	848.921
42	632.175
42.2	451.554
42.4	559.927
42.6	379.305
42.8	541.864
43	577.989
43.2	523.802
43.4	379.305
43.6	379.305
43.8	596.051
44	451.554
44.2	523.802
44.4	632.175
44.6	451.554
44.8	541.864
45	433.492
45.2	415.429
45.4	451.554
45.6	379.305
45.8	270.932
46	379.305
46.2	288.994
46.4	632.175
46.6	451.554
46.8	433.492
47	451.554
47.2	379.305
47.4	469.616
47.6	343.181
47.8	614.113
48	433.492
48.2	397.367
48.4	397.367
48.6	577.989
48.8	397.367
49	343.181
49.2	288.994
49.4	307.056
49.6	325.119
49.8	397.367
50	487.678
50.2	397.367
50.4	234.808
50.6	361.243
50.8	415.429
51	559.927
51.2	433.492
51.4	307.056
51.6	343.181
51.8	415.429
52	307.056
52.2	487.678
52.4	379.305
52.6	288.994
52.8	252.87
53	415.429
53.2	234.808
53.4	451.554
53.6	361.243
53.8	361.243
54	325.119
54.2	325.119
54.4	361.243
54.6	704.424
54.8	487.678
55	343.181
55.2	379.305
55.4	126.435
55.6	234.808
55.8	126.435
56	270.932
56.2	487.678
56.4	270.932
56.6	234.808
56.8	415.429
57	270.932
57.2	343.181
57.4	162.559
57.6	252.87
57.8	307.056
58	325.119
58.2	234.808
58.4	325.119
58.6	252.87
58.8	288.994
59	288.994
59.2	325.119
59.4	361.243
59.6	216.746
59.8	451.554
60	361.243