File: program/database/experiments/MU/xrd/1102/parallel/liftfsi/xrd/80.TXT
Sample
Comments
Filename	C:\Data\西出研\梅木\20211102オペ\LiFTFSI_02_0001_0079-2_C_2θ.raw
Goniometer	SmartLab(In-plane)
Attachment	標準Zステージ
Monochromater	None
X	0
Y	0
Z	0.00908
ScanningMode	2Theta
ScanningType	Continuos Scanning
X-Ray	40kV/30mA
入射スリット	0.300mm
受光スリット1	20.000mm
受光スリット2	20.000mm
None
Start	5
Stop	60
Step	0.02
Speed	21.6746
Theta	0
5	3811.11
5.2	3215.06
5.4	3106.69
5.6	3467.93
5.8	3594.37
6	2889.94
6.2	3341.5
6.4	3215.06
6.6	2980.25
6.8	2817.69
7	3269.25
7.2	3016.38
7.4	3034.44
7.6	3070.56
7.8	3413.75
8	3142.81
8.2	3215.06
8.4	3359.56
8.6	2420.33
8.8	2998.32
9	3251.19
9.2	3774.99
9.4	3178.94
9.6	2944.13
9.8	2528.7
10	2546.76
10.2	3197
10.4	2980.25
10.6	2691.26
10.8	2799.63
11	2980.25
11.2	2673.2
11.4	3016.38
11.6	2908.01
11.8	2564.82
12	2637.07
12.2	2492.58
12.4	2655.14
12.6	2908.01
12.8	2528.7
13	2330.02
13.2	2474.51
13.4	2420.33
13.6	2510.64
13.8	2673.2
14	2763.51
14.2	2691.26
14.4	2420.33
14.6	2492.58
14.8	2600.95
15	2655.14
15.2	2366.14
15.4	2474.51
15.6	2077.15
15.8	2167.46
16	2980.25
16.2	2059.08
16.4	2113.27
16.6	2113.27
16.8	2492.58
17	2221.64
17.2	2095.21
17.4	2113.27
17.6	2167.46
17.8	2456.45
18	7477.73
18.2	2167.46
18.4	3612.43
18.6	2745.45
18.8	2167.46
19	2077.15
19.2	5671.51
19.4	2077.15
19.6	1860.4
19.8	2059.08
20	2528.7
20.2	1770.09
20.4	2041.02
20.6	1733.97
20.8	1463.03
21	6213.38
21.2	2203.58
21.4	1968.77
21.6	1788.15
21.8	1697.84
22	1535.28
22.2	1679.78
22.4	1661.72
22.6	1770.09
22.8	1499.16
23	1589.47
23.2	1715.9
23.4	1914.59
23.6	1661.72
23.8	1481.1
24	1499.16
24.2	1390.79
24.4	1571.41
24.6	1354.66
24.8	1210.16
25	1679.78
25.2	1607.53
25.4	2889.94
25.6	6412.06
25.8	1372.72
26	1643.66
26.2	1625.59
26.4	1770.09
26.6	1463.03
26.8	1264.35
27	1192.1
27.2	993.418
27.4	2817.69
27.6	2673.2
27.8	1065.67
28	1083.73
28.2	1047.6
28.4	1282.41
28.6	939.232
28.8	1390.79
29	1065.67
29.2	1119.85
29.4	776.672
29.6	740.548
29.8	1300.47
30	1300.47
30.2	740.548
30.4	1174.04
30.6	1029.54
30.8	957.294
31	830.859
31.2	722.486
31.4	1047.6
31.6	975.356
31.8	866.983
32	559.927
32.2	812.797
32.4	1643.66
32.6	830.859
32.8	1553.34
33	1083.73
33.2	939.232
33.4	776.672
33.6	758.61
33.8	812.797
34	650.237
34.2	740.548
34.4	650.237
34.6	758.61
34.8	812.797
35	632.175
35.2	650.237
35.4	505.74
35.6	632.175
35.8	614.113
36	830.859
36.2	758.61
36.4	776.672
36.6	921.169
36.8	1083.73
37	1390.79
37.2	1264.35
37.4	740.548
37.6	830.859
37.8	704.424
38	885.045
38.2	957.294
38.4	487.678
38.6	614.113
38.8	686.362
39	758.61
39.2	1444.97
39.4	523.802
39.6	505.74
39.8	668.299
40	541.864
40.2	379.305
40.4	451.554
40.6	397.367
40.8	379.305
41	397.367
41.2	307.056
41.4	668.299
41.6	830.859
41.8	361.243
42	559.927
42.2	487.678
42.4	433.492
42.6	596.051
42.8	776.672
43	776.672
43.2	415.429
43.4	433.492
43.6	740.548
43.8	541.864
44	397.367
44.2	433.492
44.4	343.181
44.6	433.492
44.8	451.554
45	234.808
45.2	541.864
45.4	415.429
45.6	379.305
45.8	325.119
46	451.554
46.2	632.175
46.4	523.802
46.6	325.119
46.8	361.243
47	288.994
47.2	451.554
47.4	361.243
47.6	361.243
47.8	776.672
48	361.243
48.2	307.056
48.4	307.056
48.6	469.616
48.8	307.056
49	343.181
49.2	361.243
49.4	270.932
49.6	343.181
49.8	433.492
50	469.616
50.2	307.056
50.4	361.243
50.6	433.492
50.8	397.367
51	379.305
51.2	379.305
51.4	234.808
51.6	397.367
51.8	361.243
52	469.616
52.2	415.429
52.4	451.554
52.6	325.119
52.8	325.119
53	234.808
53.2	415.429
53.4	361.243
53.6	415.429
53.8	234.808
54	307.056
54.2	361.243
54.4	559.927
54.6	523.802
54.8	216.746
55	270.932
55.2	451.554
55.4	270.932
55.6	361.243
55.8	288.994
56	397.367
56.2	270.932
56.4	307.056
56.6	325.119
56.8	379.305
57	505.74
57.2	361.243
57.4	325.119
57.6	415.429
57.8	307.056
58	234.808
58.2	198.684
58.4	451.554
58.6	397.367
58.8	162.559
59	397.367
59.2	343.181
59.4	270.932
59.6	541.864
59.8	451.554
60	505.74