File: database/experiments/MU/xrd/930(919)_ppo_chloranil_liftfsi_for_xrd/xrd.csv
x,y
10,27460.8
10.27,26715.3
10.54,27530.2
10.81,28847.7
11.08,28136.9
11.35,27547.5
11.62,28154.3
11.89,27564.8
12.16,28431.6
12.43,28119.6
12.7,29350.5
12.97,29281.1
13.24,29159.8
13.51,28483.7
13.78,30061.3
14.05,29402.5
14.32,28379.6
14.59,29177.1
14.86,30200
15.13,28397
15.4,28501
15.67,29073.1
15.94,29246.5
16.21,29939.9
16.48,28535.7
16.75,27426.1
17.02,29385.1
17.29,28310.3
17.56,28015.6
17.83,27547.5
18.1,26802
18.37,26490
18.64,25917.9
18.91,26160.6
19.18,28136.9
19.45,27460.8
19.72,24357.6
19.99,23438.8
20.26,23872.2
20.53,23802.8
20.8,23265.4
21.07,23126.7
21.34,22710.6
21.61,22814.7
21.88,23022.7
22.15,22728
22.42,22745.3
22.69,22398.6
22.96,22398.6
23.23,23144.1
23.5,21670.5
23.77,21635.8
24.04,21462.4
24.31,21271.7
24.58,22901.3
24.85,23698.8
25.12,21583.8
25.39,18810
25.66,18914
25.93,18792.6
26.2,18237.9
26.47,18237.9
26.74,17873.8
27.01,17405.7
27.28,16642.9
27.55,15845.4
27.82,16642.9
28.09,16244.2
28.36,15793.4
28.63,15828.1
28.9,16105.5
29.17,14735.9
29.44,15550.7
29.71,14510.5
29.98,14978.6
30.25,14389.2
30.52,13834.4
30.79,13435.7
31.06,14441.2
31.33,13487.7
31.6,13487.7
31.87,13175.6
32.14,13609.1
32.41,13002.3
32.68,12915.6
32.95,12499.5
33.22,15810.8
33.49,14302.5
33.76,13453
34.03,12308.8
34.3,12690.2
34.57,12603.5
34.84,12499.5
35.11,12014.1
35.38,11875.4
35.65,11702
35.92,11511.3
36.19,11754.1
36.46,11494
36.73,11788.7
37,10731.2
37.27,11615.4
37.54,10835.2
37.81,10436.5
38.08,12551.5
38.35,11702
38.62,10869.9
38.89,10800.6
39.16,10505.8
39.43,10627.2
39.7,9881.73
39.97,10592.5
40.24,8962.9
40.51,10124.4
40.78,10020.4
41.05,9847.06
41.32,9968.41
41.59,9881.73
41.86,9656.36
42.13,9829.72
42.4,10505.8
42.67,9795.05
42.94,9500.33
43.21,9535
43.48,8841.55
43.75,9292.29
44.02,9847.06
44.29,9829.72
44.56,9847.06
44.83,9587.01
45.1,9153.6
45.37,8633.51
45.64,9101.59
45.91,8546.83
46.18,8442.81
46.45,8512.16
46.72,8252.11
46.99,8529.49
47.26,8754.87
47.53,8477.49
47.8,9049.58
48.07,8425.48
48.34,8685.52
48.61,8494.82
48.88,7888.05
49.15,8338.79
49.42,9535
49.69,9240.29
49.96,8009.4
50.23,8234.78
50.5,7784.03
50.77,7090.58
51.04,6986.56
51.31,8130.76
51.58,7749.36
51.85,7680.01
52.12,7610.67
52.39,6709.18
52.66,6449.13
52.93,6778.52
53.2,6449.13
53.47,6085.07
53.74,6258.43
54.01,5703.67
54.28,6431.79
54.55,5842.36
54.82,5790.35
55.09,5790.35
55.36,5478.29
55.63,5270.26
55.9,5443.62
56.17,5079.56
56.44,5981.05
56.71,4992.87
56.98,5252.92
57.25,5148.9
57.52,5738.34
57.79,4992.87
58.06,4680.82
58.33,4646.15
58.6,4836.85
58.87,4802.17
59.14,4819.51
59.41,5148.9
59.68,5287.59
59.95,5044.88
60.22,3848.67
60.49,4420.77
60.76,4975.54
61.03,4368.77
61.3,4316.76
61.57,4022.04
61.84,4126.06
62.11,4264.75
62.38,4715.49
62.65,3987.37
62.92,4819.51
63.19,4212.74
63.46,3831.34
63.73,4178.07
64,3571.29
64.27,3761.99
64.54,4230.07
64.81,3675.31
65.08,4160.73
65.35,4143.39
65.62,4438.11
65.89,4819.51
66.16,4039.37
66.43,3952.69
66.7,4022.04
66.97,3536.62
67.24,4056.71
67.51,3952.69
67.78,4316.76
68.05,3553.96
68.32,3640.64
68.59,3536.62
68.86,3657.97
69.13,3814
69.4,3900.68
69.67,3814
69.94,3866.01
70.21,3571.29
70.48,3467.27
70.75,3588.63
71.02,3779.33
71.29,3848.67
71.56,3536.62
71.83,3415.26
72.1,3588.63
72.37,3744.66
72.64,3501.95
72.91,3623.3
73.18,3640.64
73.45,3657.97
73.72,3987.37
73.99,3675.31
74.26,4282.08
74.53,3571.29
74.8,3814
75.07,3900.68
75.34,4472.78
75.61,4143.39
75.88,4819.51
76.15,6761.18
76.42,6275.77
76.69,5738.34
76.96,4472.78
77.23,4022.04
77.5,4282.08
77.77,4126.06
78.04,3727.32
78.31,3900.68
78.58,4680.82
78.85,4316.76
79.12,3657.97
79.39,3866.01
79.66,3761.99
79.93,3814
80.2,3657.97
80.47,3866.01
80.74,3727.32
81.01,3709.98
81.28,4212.74
81.55,3779.33
81.82,4282.08
82.09,4386.1
82.36,3814
82.63,3970.03
82.9,4247.41
83.17,3935.36
83.44,3848.67
83.71,3814
83.98,3761.99
84.25,4056.71
84.52,3796.67
84.79,3276.57
85.06,3345.92
85.33,3761.99
85.6,3848.67
85.87,3814
86.14,3380.59
86.41,3814
86.68,3900.68
86.95,3536.62
87.22,3571.29
87.49,3380.59
87.76,3935.36
88.03,3675.31
88.3,2999.19
88.57,3553.96
88.84,3328.58
89.11,3640.64
89.38,3519.28
89.65,3519.28
89.92,3484.61
90,4282.08