File: program/database/experiments/MU/xrd/930(924)_ppo_chloranil_liftfsi_for_xrd_0/xrd.TXT
Sample
Comments
Filename	C:\Data\西出研\梅木\210930オペ\PPOChloranil_2θ_θ.raw
Goniometer	SmartLab(In-plane)
Attachment	Zステージ単独
Monochromater	None
X	0
Y	0
Z	0.05294
ScanningMode	2Theta/Theta
ScanningType	Continuos Scanning
X-Ray	40kV/30mA
入射スリット	2/3deg
受光スリット1	20.000mm
受光スリット2	20.000mm
Cu_K-beta
Start	10
Stop	90
Step	0.01
Speed	10.4018
Offset	0
10	64109.9
10.27	65184.8
10.54	66467.6
10.81	68704
11.08	67854.6
11.35	70143
11.62	72171.3
11.89	72240.7
12.16	76574.8
12.43	76886.8
12.7	76366.7
12.97	79868.7
13.24	79608.6
13.51	78724.5
13.78	81359.6
14.05	80215.4
14.32	83977.4
14.59	83994.7
14.86	81758.3
15.13	83249.3
15.4	81723.6
15.67	79972.7
15.94	80683.5
16.21	79296.6
16.48	76834.8
16.75	76020
17.02	75517.2
17.29	74251.7
17.56	71945.9
17.83	71061.8
18.1	70957.8
18.37	71651.2
18.64	68773.4
18.91	67525.2
19.18	66276.9
19.45	66276.9
19.72	66831.7
19.99	65063.4
20.26	66641
20.53	64092.6
20.8	63953.9
21.07	62965.7
21.34	62515
21.61	60937.3
21.88	61942.9
22.15	60694.6
22.42	60243.9
22.69	58770.3
22.96	60157.2
23.23	59689.1
23.5	58492.9
23.77	55892.5
24.04	54089.5
24.31	53777.4
24.58	54280.2
24.85	51055.6
25.12	49235.3
25.39	50223.5
25.66	47744.4
25.93	46842.9
26.2	44918.5
26.47	44779.8
26.74	44259.8
27.01	42508.8
27.28	41711.3
27.55	39943
27.82	38608.1
28.09	39249.5
28.36	37463.9
28.63	37446.6
28.9	36389
29.17	34898.1
29.44	34638.1
29.71	33736.6
29.98	33424.5
30.25	33372.5
30.52	31465.5
30.79	32748.4
31.06	31101.4
31.33	30841.4
31.6	30425.3
31.87	29645.2
32.14	31032.1
32.41	30130.6
32.68	30304
32.95	29298.5
33.22	29315.8
33.49	28501
33.76	28917.1
34.03	26403.3
34.3	27391.5
34.57	26524.6
34.84	26333.9
35.11	26715.3
35.38	25900.5
35.65	25709.8
35.92	25103.1
36.19	25207.1
36.46	25345.8
36.73	23716.2
37	24062.9
37.27	23577.5
37.54	24392.3
37.81	23473.4
38.08	24357.6
38.35	23334.8
38.62	22953.4
38.89	22069.2
39.16	21965.2
39.43	22519.9
39.7	22190.6
39.97	20977
40.24	22155.9
40.51	21341.1
40.78	20682.3
41.05	20994.3
41.32	22034.5
41.59	23144.1
41.86	21999.9
42.13	21965.2
42.4	21462.4
42.67	20630.3
42.94	19226
43.21	20925
43.48	19746.1
43.75	19815.5
44.02	20439.6
44.29	20110.2
44.56	19451.4
44.83	19607.4
45.1	19330.1
45.37	19416.7
45.64	19295.4
45.91	18844.6
46.18	18636.6
46.45	18393.9
46.72	18047.2
46.99	18445.9
47.26	18012.5
47.53	19174
47.8	18549.9
48.07	18445.9
48.34	16798.9
48.61	16677.6
48.88	17353.7
49.15	19676.8
49.42	20803.6
49.69	20179.5
49.96	17509.7
50.23	16712.3
50.5	15169.3
50.77	16053.5
51.04	15897.5
51.31	15394.7
51.58	15204
51.85	15169.3
52.12	14839.9
52.39	13851.8
52.66	14059.8
52.93	14545.2
53.2	13505
53.47	13175.6
53.74	13106.3
54.01	12863.6
54.28	12083.5
54.55	11372.7
54.82	12482.2
55.09	12308.8
55.36	11702
55.63	11025.9
55.9	10765.9
56.17	11719.4
56.44	12343.5
56.71	13713.1
56.98	10055.1
57.25	10107.1
57.52	9344.3
57.79	10176.4
58.06	9448.32
58.33	9326.97
58.6	9795.05
58.87	9309.63
59.14	9587.01
59.41	9222.95
59.68	9708.37
59.95	9795.05
60.22	9274.96
60.49	8945.57
60.76	9344.3
61.03	8754.87
61.3	8945.57
61.57	9049.58
61.84	9222.95
62.11	8633.51
62.38	8304.12
62.65	8737.53
62.92	8338.79
63.19	8269.45
63.46	8217.44
63.73	8529.49
64	8477.49
64.27	8512.16
64.54	8113.42
64.81	7541.32
65.08	8512.16
65.35	7888.05
65.62	8633.51
65.89	8113.42
66.16	8130.76
66.43	8113.42
66.7	8044.08
66.97	7905.38
67.24	7732.02
67.51	8269.45
67.78	7836.04
68.05	7367.96
68.32	7506.65
68.59	7523.98
68.86	7333.28
69.13	7645.34
69.4	6865.2
69.67	7992.07
69.94	7957.39
70.21	7194.59
70.48	7922.72
70.75	7801.37
71.02	7575.99
71.29	7038.57
71.56	7454.64
71.83	7281.28
72.1	7714.69
72.37	7714.69
72.64	7211.93
72.91	7471.98
73.18	7437.3
73.45	7870.71
73.72	7749.36
73.99	7749.36
74.26	7818.7
74.53	7801.37
74.8	7801.37
75.07	8390.8
75.34	8182.77
75.61	8286.79
75.88	9517.67
76.15	11268.6
76.42	11615.4
76.69	9933.74
76.96	8841.55
77.23	8772.2
77.5	8702.86
77.77	8702.86
78.04	8113.42
78.31	8512.16
78.58	8876.22
78.85	8304.12
79.12	8148.09
79.39	8061.41
79.66	8442.81
79.93	8026.74
80.2	8321.46
80.47	8148.09
80.74	8321.46
81.01	8286.79
81.28	8096.08
81.55	7714.69
81.82	8165.43
82.09	8044.08
82.36	7281.28
82.63	8165.43
82.9	7628
83.17	7957.39
83.44	7038.57
83.71	8148.09
83.98	8390.8
84.25	7489.31
84.52	7628
84.79	7333.28
85.06	7177.26
85.33	7281.28
85.6	7575.99
85.87	7263.94
86.14	6917.21
86.41	6691.84
86.68	6709.18
86.95	7402.63
87.22	7177.26
87.49	7281.28
87.76	6917.21
88.03	6709.18
88.3	6951.88
88.57	7073.24
88.84	6969.22
89.11	6761.18
89.38	6761.18
89.65	7090.58
89.92	7818.7
90	9448.32