File: database/experiments/MU/xrd/903_ppo_chloranil_liftfsi_for_xrd_30/xrd.TXT
Sample
Comments
Filename	C:\Data\西出研\梅木\210903\PPOChloranilLiTfSI30wt_2θ_θ.raw
Goniometer	SmartLab(In-plane)
Attachment	Zステージ単独
Monochromater	None
X	0
Y	0
Z	-0.35756
ScanningMode	2Theta/Theta
ScanningType	Continuos Scanning
X-Ray	40kV/30mA
入射スリット	2/3deg
受光スリット1	20.000mm
受光スリット2	20.000mm
Cu_K-beta
Start	10
Stop	90
Step	0.01
Speed	10.4018
Offset	0
10	24947
10.27	26975.4
10.54	28136.9
10.81	37342.5
11.08	27062.1
11.35	27270.1
11.62	27079.4
11.89	27842.2
12.16	26992.7
12.43	28397
12.7	28969.1
12.97	28882.4
13.24	29211.8
13.51	29870.6
13.78	30269.3
14.05	29159.8
14.32	29957.2
14.59	28969.1
14.86	28622.3
15.13	28067.6
15.4	29038.4
15.67	28327.6
15.94	28050.2
16.21	27911.6
16.48	27460.8
16.75	28275.6
17.02	32713.7
17.29	33459.2
17.56	25241.8
17.83	24739
18.1	27010.1
18.37	39908.3
18.64	24877.7
18.91	29974.6
19.18	70749.7
19.45	29263.8
19.72	22780
19.99	24340.3
20.26	22780
20.53	22624
20.8	22086.5
21.07	21774.5
21.34	23230.7
21.61	22814.7
21.88	21601.1
22.15	20838.3
22.42	20959.7
22.69	20300.9
22.96	23109.4
23.23	27426.1
23.5	19971.5
23.77	18185.9
24.04	19243.4
24.31	20595.6
24.58	35296.9
24.85	33060.5
25.12	20006.2
25.39	17752.4
25.66	16746.9
25.93	16538.9
26.2	15776.1
26.47	17111
26.74	15689.4
27.01	14735.9
27.28	15568.1
27.55	15030.6
27.82	14475.9
28.09	14094.5
28.36	13487.7
28.63	15186.7
28.9	25675.2
29.17	14285.2
29.44	13401
29.71	12950.3
29.98	13262.3
30.25	13505
30.52	12222.1
30.79	13262.3
31.06	12568.9
31.33	12100.8
31.6	12204.8
31.87	14458.5
32.14	13574.4
32.41	12568.9
32.68	13019.6
32.95	14146.5
33.22	20006.2
33.49	20474.3
33.76	11528.7
34.03	12152.8
34.3	13279.7
34.57	10765.9
34.84	14423.9
35.11	10575.2
35.38	11580.7
35.65	10748.5
35.92	11303.3
36.19	10609.9
36.46	13331.7
36.73	10731.2
37	12274.2
37.27	12776.9
37.54	10661.9
37.81	10835.2
38.08	19486.1
38.35	16001.5
38.62	10107.1
38.89	11442
39.16	10679.2
39.43	10089.8
39.7	9483
39.97	10193.8
40.24	9673.69
40.51	9240.29
40.78	10124.4
41.05	10783.2
41.32	9812.39
41.59	10401.8
41.86	9257.62
42.13	9032.25
42.4	10921.9
42.67	9708.37
42.94	10055.1
43.21	10003.1
43.48	9257.62
43.75	8390.8
44.02	10748.5
44.29	10315.1
44.56	10540.5
44.83	8720.19
45.1	9656.36
45.37	8616.18
45.64	8564.17
45.91	8529.49
46.18	8373.47
46.45	8148.09
46.72	8962.9
46.99	9136.27
47.26	8650.85
47.53	8650.85
47.8	7315.95
48.07	8130.76
48.34	10089.8
48.61	8044.08
48.88	7333.28
49.15	8165.43
49.42	8460.15
49.69	8442.81
49.96	9465.66
50.23	7922.72
50.5	7038.57
50.77	7229.27
51.04	7940.06
51.31	8702.86
51.58	7350.62
51.85	6033.06
52.12	6986.56
52.39	6518.48
52.66	5911.7
52.93	6154.41
53.2	5686.33
53.47	6137.08
53.74	6033.06
54.01	6917.21
54.28	6622.49
54.55	5339.6
54.82	5010.21
55.09	5114.23
55.36	5530.3
55.63	5582.31
55.9	5096.89
56.17	5200.91
56.44	5703.67
56.71	4732.83
56.98	4836.85
57.25	4368.77
57.52	5339.6
57.79	4316.76
58.06	4698.16
58.33	4056.71
58.6	4542.13
58.87	4559.47
59.14	4455.45
59.41	4403.44
59.68	4784.84
59.95	5755.67
60.22	4507.46
60.49	4282.08
60.76	4368.77
61.03	4611.47
61.3	5027.55
61.57	4386.1
61.84	4195.4
62.11	3883.35
62.38	4368.77
62.65	4282.08
62.92	3952.69
63.19	3970.03
63.46	3657.97
63.73	3970.03
64	3761.99
64.27	4074.05
64.54	4472.78
64.81	3900.68
65.08	4004.7
65.35	4767.5
65.62	4455.45
65.89	4576.8
66.16	4004.7
66.43	3640.64
66.7	3259.24
66.97	4160.73
67.24	4126.06
67.51	3657.97
67.78	3623.3
68.05	3588.63
68.32	3883.35
68.59	3640.64
68.86	3397.93
69.13	3449.94
69.4	3900.68
69.67	3311.25
69.94	3415.26
70.21	3588.63
70.48	3605.97
70.75	3709.98
71.02	3311.25
71.29	3501.95
71.56	3224.56
71.83	3051.2
72.1	3484.61
72.37	3692.65
72.64	3744.66
72.91	3207.23
73.18	3866.01
73.45	3605.97
73.72	3657.97
73.99	3657.97
74.26	4126.06
74.53	4472.78
74.8	3605.97
75.07	4074.05
75.34	4108.72
75.61	4368.77
75.88	6535.81
76.15	6639.83
76.42	6969.22
76.69	5391.61
76.96	3918.02
77.23	4264.75
77.5	4126.06
77.77	3918.02
78.04	4195.4
78.31	4022.04
78.58	4195.4
78.85	3970.03
79.12	4056.71
79.39	4438.11
79.66	4992.87
79.93	4455.45
80.2	4056.71
80.47	4386.1
80.74	3952.69
81.01	3640.64
81.28	3761.99
81.55	4091.38
81.82	3935.36
82.09	4264.75
82.36	4282.08
82.63	3796.67
82.9	4126.06
83.17	4108.72
83.44	4091.38
83.71	3848.67
83.98	3796.67
84.25	3571.29
84.52	3761.99
84.79	3744.66
85.06	3380.59
85.33	3883.35
85.6	3571.29
85.87	3432.6
86.14	3536.62
86.41	3640.64
86.68	3623.3
86.95	3449.94
87.22	3241.9
87.49	3207.23
87.76	3137.88
88.03	3900.68
88.3	3293.91
88.57	3189.89
88.84	3657.97
89.11	3293.91
89.38	3449.94
89.65	3519.28
89.92	3120.55
90	2947.18