File: program/database/experiments/MU/xrd/1102/parallel/1029/xrd/100.TXT
Sample
Comments
Filename	C:\Data\西出研\梅木\20211102オペ\LiFTFSI20wt_04_0004_0099-1_C_2θ.raw
Goniometer	SmartLab(In-plane)
Attachment	標準Zステージ
Monochromater	None
X	0
Y	0
Z	0.01716
ScanningMode	2Theta
ScanningType	Continuos Scanning
X-Ray	40kV/30mA
入射スリット	0.300mm
受光スリット1	20.000mm
受光スリット2	20.000mm
None
Start	5
Stop	60
Step	0.02
Speed	21.6746
Theta	0
5	6953.93
5.2	6809.43
5.4	6646.87
5.6	6791.37
5.8	6357.88
6	6773.31
6.2	6430.12
6.4	6231.44
6.6	5816.01
6.8	5527.02
7	5328.33
7.2	5635.39
7.4	5201.9
7.6	5436.71
7.8	5563.14
8	6014.69
8.2	5761.82
8.4	5617.33
8.6	5599.27
8.8	5183.84
9	5436.71
9.2	5653.45
9.4	5653.45
9.6	5256.08
9.8	6177.25
10	5201.9
10.2	4985.15
10.4	4696.16
10.6	5201.9
10.8	5527.02
11	5274.15
11.2	5400.58
11.4	5454.77
11.6	4912.9
11.8	4714.22
12	5219.96
12.2	5057.4
12.4	4876.78
12.6	5147.71
12.8	5111.59
13	5653.45
13.2	5328.33
13.4	4750.34
13.6	5201.9
13.8	5472.83
14	5364.46
14.2	4949.03
14.4	5490.89
14.6	5364.46
14.8	4967.09
15	5075.46
15.2	5274.15
15.4	4840.66
15.6	5400.58
15.8	5147.71
16	5075.46
16.2	4804.53
16.4	4804.53
16.6	4858.72
16.8	4714.22
17	5707.64
17.2	5527.02
17.4	4930.97
17.6	5292.21
17.8	4750.34
18	5111.59
18.2	5238.02
18.4	5111.59
18.6	4696.16
18.8	4949.03
19	4497.47
19.2	4840.66
19.4	4660.03
19.6	4515.54
19.8	4298.79
20	4714.22
20.2	4407.16
20.4	4154.29
20.6	4497.47
20.8	4407.16
21	4443.29
21.2	3883.36
21.4	4172.36
21.6	3991.73
21.8	4118.17
22	4172.36
22.2	3937.55
22.4	3648.55
22.6	3558.24
22.8	3720.8
23	3829.18
23.2	4063.98
23.4	3612.43
23.6	3937.55
23.8	3648.55
24	3720.8
24.2	3648.55
24.4	3540.18
24.6	3558.24
24.8	3431.81
25	3124.75
25.2	3485.99
25.4	3178.94
25.6	3305.37
25.8	2709.32
26	2962.19
26.2	2799.63
26.4	2709.32
26.6	3052.5
26.8	2311.95
27	2655.14
27.2	2763.51
27.4	2619.01
27.6	2474.51
27.8	2203.58
28	3016.38
28.2	2293.89
28.4	2311.95
28.6	2384.2
28.8	2384.2
29	2330.02
29.2	2022.96
29.4	1860.4
29.6	2059.08
29.8	1968.77
30	2311.95
30.2	2239.71
30.4	1860.4
30.6	2239.71
30.8	1950.71
31	1733.97
31.2	1788.15
31.4	1697.84
31.6	1824.28
31.8	1733.97
32	1752.03
32.2	1752.03
32.4	1806.21
32.6	1589.47
32.8	1607.53
33	2167.46
33.2	1824.28
33.4	1896.53
33.6	1950.71
33.8	1499.16
34	1914.59
34.2	1788.15
34.4	1679.78
34.6	1643.66
34.8	1535.28
35	1372.72
35.2	1625.59
35.4	1354.66
35.6	1589.47
35.8	1444.97
36	1318.54
36.2	1390.79
36.4	1553.34
36.6	1137.92
36.8	1408.85
37	1264.35
37.2	1318.54
37.4	1264.35
37.6	1390.79
37.8	1408.85
38	1390.79
38.2	1318.54
38.4	1282.41
38.6	1372.72
38.8	1137.92
39	1155.98
39.2	1011.48
39.4	1155.98
39.6	1174.04
39.8	1318.54
40	1174.04
40.2	1390.79
40.4	1029.54
40.6	758.61
40.8	1210.16
41	1336.6
41.2	1029.54
41.4	1174.04
41.6	866.983
41.8	1192.1
42	1264.35
42.2	1318.54
42.4	1101.79
42.6	1083.73
42.8	1300.47
43	1011.48
43.2	1011.48
43.4	1011.48
43.6	1174.04
43.8	1174.04
44	1336.6
44.2	1047.6
44.4	1155.98
44.6	921.169
44.8	1065.67
45	1155.98
45.2	848.921
45.4	1119.85
45.6	1137.92
45.8	1228.23
46	1083.73
46.2	1246.29
46.4	758.61
46.6	903.107
46.8	903.107
47	939.232
47.2	686.362
47.4	1192.1
47.6	758.61
47.8	758.61
48	1083.73
48.2	939.232
48.4	866.983
48.6	1011.48
48.8	794.734
49	848.921
49.2	830.859
49.4	848.921
49.6	921.169
49.8	794.734
50	758.61
50.2	812.797
50.4	704.424
50.6	830.859
50.8	885.045
51	704.424
51.2	650.237
51.4	903.107
51.6	650.237
51.8	632.175
52	686.362
52.2	794.734
52.4	812.797
52.6	866.983
52.8	758.61
53	740.548
53.2	903.107
53.4	794.734
53.6	650.237
53.8	523.802
54	812.797
54.2	740.548
54.4	758.61
54.6	722.486
54.8	758.61
55	650.237
55.2	577.989
55.4	614.113
55.6	577.989
55.8	487.678
56	686.362
56.2	848.921
56.4	686.362
56.6	541.864
56.8	541.864
57	686.362
57.2	523.802
57.4	632.175
57.6	740.548
57.8	632.175
58	505.74
58.2	505.74
58.4	596.051
58.6	541.864
58.8	523.802
59	469.616
59.2	379.305
59.4	686.362
59.6	776.672
59.8	614.113
60	469.616
60	234.808