File: program/database/experiments/MU/xrd/1102/parallel/1029/xrd/50.TXT
Sample
Comments
Filename	C:\Data\西出研\梅木\20211102オペ\LiFTFSI20wt_02_0002_0049-1_C_2θ.raw
Goniometer	SmartLab(In-plane)
Attachment	標準Zステージ
Monochromater	None
X	0
Y	0
Z	0.01716
ScanningMode	2Theta
ScanningType	Continuos Scanning
X-Ray	40kV/30mA
入射スリット	0.300mm
受光スリット1	20.000mm
受光スリット2	20.000mm
None
Start	5
Stop	60
Step	0.02
Speed	21.6746
Theta	0
5	7893.16
5.2	6791.37
5.4	7206.8
5.6	5924.38
5.8	6448.19
6	6412.06
6.2	5671.51
6.4	5472.83
6.6	5779.89
6.8	5942.45
7	6032.76
7.2	5906.32
7.4	5743.76
7.6	5346.4
7.8	5797.95
8	5599.27
8.2	5472.83
8.4	5653.45
8.6	5454.77
8.8	5581.2
9	5238.02
9.2	5797.95
9.4	5310.27
9.6	5057.4
9.8	5165.77
10	5021.28
10.2	5111.59
10.4	4660.03
10.6	4894.84
10.8	4894.84
11	5111.59
11.2	5797.95
11.4	5346.4
11.6	5725.7
11.8	5364.46
12	5400.58
12.2	5129.65
12.4	4985.15
12.6	5274.15
12.8	5816.01
13	5075.46
13.2	5075.46
13.4	5075.46
13.6	4949.03
13.8	5129.65
14	5093.53
14.2	4641.97
14.4	5039.34
14.6	4678.1
14.8	4660.03
15	4840.66
15.2	5003.21
15.4	4425.23
15.6	4533.6
15.8	4732.28
16	5039.34
16.2	4949.03
16.4	4678.1
16.6	4352.98
16.8	4858.72
17	4569.72
17.2	5075.46
17.4	4678.1
17.6	4551.66
17.8	4443.29
18	4876.78
18.2	5797.95
18.4	4750.34
18.6	4930.97
18.8	5454.77
19	6195.32
19.2	5563.14
19.4	4949.03
19.6	4660.03
19.8	4750.34
20	4949.03
20.2	4605.85
20.4	4208.48
20.6	4190.42
20.8	4515.54
21	4208.48
21.2	3973.67
21.4	3865.3
21.6	3901.42
21.8	3973.67
22	4208.48
22.2	3811.11
22.4	4280.73
22.6	3738.86
22.8	3467.93
23	4154.29
23.2	3160.88
23.4	3485.99
23.6	3738.86
23.8	3720.8
24	3811.11
24.2	4045.92
24.4	3756.93
24.6	3811.11
24.8	3269.25
25	3197
25.2	3251.19
25.4	2926.07
25.6	3106.69
25.8	3215.06
26	3865.3
26.2	3558.24
26.4	2889.94
26.6	3034.44
26.8	2564.82
27	2799.63
27.2	2366.14
27.4	2330.02
27.6	2203.58
27.8	2311.95
28	2384.2
28.2	2149.4
28.4	2528.7
28.6	2474.51
28.8	2311.95
29	2348.08
29.2	2330.02
29.4	2438.39
29.6	2095.21
29.8	1878.46
30	2113.27
30.2	1824.28
30.4	1986.84
30.6	1806.21
30.8	2167.46
31	2113.27
31.2	1697.84
31.4	1896.53
31.6	1788.15
31.8	1444.97
32	1535.28
32.2	1770.09
32.4	1589.47
32.6	1788.15
32.8	1571.41
33	1733.97
33.2	1697.84
33.4	1517.22
33.6	1589.47
33.8	1752.03
34	1228.23
34.2	1752.03
34.4	1336.6
34.6	1661.72
34.8	1679.78
35	1607.53
35.2	1571.41
35.4	1697.84
35.6	1372.72
35.8	1499.16
36	1318.54
36.2	1463.03
36.4	1408.85
36.6	1282.41
36.8	1408.85
37	1246.29
37.2	1336.6
37.4	1481.1
37.6	1354.66
37.8	1192.1
38	1408.85
38.2	1300.47
38.4	1318.54
38.6	1426.91
38.8	1137.92
39	1372.72
39.2	1354.66
39.4	1426.91
39.6	1119.85
39.8	1300.47
40	1336.6
40.2	1300.47
40.4	1264.35
40.6	1192.1
40.8	1228.23
41	1192.1
41.2	1174.04
41.4	921.169
41.6	1119.85
41.8	1372.72
42	1228.23
42.2	1155.98
42.4	1137.92
42.6	1083.73
42.8	1101.79
43	1137.92
43.2	1029.54
43.4	1282.41
43.6	1246.29
43.8	975.356
44	1174.04
44.2	975.356
44.4	1029.54
44.6	1336.6
44.8	1246.29
45	975.356
45.2	1083.73
45.4	1444.97
45.6	1083.73
45.8	993.418
46	1119.85
46.2	812.797
46.4	903.107
46.6	1065.67
46.8	1029.54
47	1029.54
47.2	1228.23
47.4	848.921
47.6	848.921
47.8	939.232
48	957.294
48.2	957.294
48.4	776.672
48.6	1137.92
48.8	812.797
49	1083.73
49.2	776.672
49.4	885.045
49.6	957.294
49.8	722.486
50	830.859
50.2	903.107
50.4	650.237
50.6	993.418
50.8	885.045
51	794.734
51.2	776.672
51.4	722.486
51.6	686.362
51.8	614.113
52	740.548
52.2	668.299
52.4	848.921
52.6	975.356
52.8	704.424
53	686.362
53.2	903.107
53.4	722.486
53.6	866.983
53.8	722.486
54	523.802
54.2	866.983
54.4	704.424
54.6	740.548
54.8	794.734
55	848.921
55.2	722.486
55.4	650.237
55.6	740.548
55.8	559.927
56	903.107
56.2	614.113
56.4	541.864
56.6	523.802
56.8	848.921
57	632.175
57.2	469.616
57.4	559.927
57.6	559.927
57.8	650.237
58	740.548
58.2	740.548
58.4	487.678
58.6	650.237
58.8	469.616
59	469.616
59.2	704.424
59.4	541.864
59.6	776.672
59.8	668.299
60	577.989

59.92	415.429
59.94	270.932
59.96	469.616
59.98	379.305
60	361.243