File: program/database/experiments/MU/xrd/1102/parallel/1029/xrd/80.TXT
Sample
Comments
Filename	C:\Data\西出研\梅木\20211102オペ\LiFTFSI20wt_03_0003_0079-1_C_2θ.raw
Goniometer	SmartLab(In-plane)
Attachment	標準Zステージ
Monochromater	None
X	0
Y	0
Z	0.01716
ScanningMode	2Theta
ScanningType	Continuos Scanning
X-Ray	40kV/30mA
入射スリット	0.300mm
受光スリット1	20.000mm
受光スリット2	20.000mm
None
Start	5
Stop	60
Step	0.02
Speed	21.6746
Theta	0
5	6285.63
5.2	6737.18
5.4	6141.13
5.6	7242.92
5.8	6123.07
6	6141.13
6.2	6339.81
6.4	5797.95
6.6	5707.64
6.8	6050.82
7	6267.56
7.2	5617.33
7.4	5527.02
7.6	5635.39
7.8	5635.39
8	6086.94
8.2	5508.95
8.4	5779.89
8.6	5906.32
8.8	5797.95
9	5707.64
9.2	5689.58
9.4	5996.63
9.6	4949.03
9.8	6159.19
10	5364.46
10.2	5527.02
10.4	5219.96
10.6	4930.97
10.8	5274.15
11	5581.2
11.2	4949.03
11.4	5165.77
11.6	5364.46
11.8	4750.34
12	5147.71
12.2	5454.77
12.4	5201.9
12.6	4912.9
12.8	5093.53
13	5545.08
13.2	5165.77
13.4	5761.82
13.6	4425.23
13.8	4930.97
14	5057.4
14.2	4226.54
14.4	4822.59
14.6	5075.46
14.8	5201.9
15	4912.9
15.2	4858.72
15.4	4714.22
15.6	5310.27
15.8	5057.4
16	4497.47
16.2	4714.22
16.4	4371.04
16.6	4425.23
16.8	4334.92
17	4804.53
17.2	5292.21
17.4	4732.28
17.6	4352.98
17.8	4641.97
18	4876.78
18.2	5527.02
18.4	5508.95
18.6	4840.66
18.8	5165.77
19	6050.82
19.2	5364.46
19.4	4822.59
19.6	4425.23
19.8	4316.85
20	4479.41
20.2	4009.8
20.4	3738.86
20.6	3793.05
20.8	3973.67
21	3901.42
21.2	4244.6
21.4	3829.18
21.6	4750.34
21.8	4100.11
22	3395.68
22.2	4298.79
22.4	3919.49
22.6	4045.92
22.8	4045.92
23	3811.11
23.2	3666.62
23.4	3612.43
23.6	3359.56
23.8	3702.74
24	3774.99
24.2	3756.93
24.4	3197
24.6	3576.31
24.8	3413.75
25	3305.37
25.2	3052.5
25.4	2889.94
25.6	3197
25.8	3215.06
26	3865.3
26.2	3612.43
26.4	3431.81
26.6	2727.38
26.8	2655.14
27	2655.14
27.2	2908.01
27.4	2619.01
27.6	2330.02
27.8	2384.2
28	2889.94
28.2	2311.95
28.4	1932.65
28.6	2528.7
28.8	2095.21
29	2492.58
29.2	2275.83
29.4	2221.64
29.6	1643.66
29.8	2185.52
30	1860.4
30.2	1896.53
30.4	1806.21
30.6	2167.46
30.8	1824.28
31	2113.27
31.2	2185.52
31.4	1806.21
31.6	1643.66
31.8	1752.03
32	1697.84
32.2	1499.16
32.4	1535.28
32.6	2113.27
32.8	1715.9
33	1806.21
33.2	2004.9
33.4	1860.4
33.6	1752.03
33.8	1788.15
34	1300.47
34.2	1968.77
34.4	1679.78
34.6	1733.97
34.8	1806.21
35	1463.03
35.2	1481.1
35.4	1318.54
35.6	1517.22
35.8	1517.22
36	1228.23
36.2	1264.35
36.4	1174.04
36.6	1210.16
36.8	1481.1
37	1481.1
37.2	1354.66
37.4	1192.1
37.6	1426.91
37.8	1336.6
38	1517.22
38.2	1426.91
38.4	1571.41
38.6	1101.79
38.8	1517.22
39	1228.23
39.2	1137.92
39.4	1300.47
39.6	1481.1
39.8	1155.98
40	1300.47
40.2	1228.23
40.4	1372.72
40.6	1174.04
40.8	1282.41
41	1463.03
41.2	1499.16
41.4	1372.72
41.6	1282.41
41.8	1119.85
42	1246.29
42.2	1318.54
42.4	939.232
42.6	1228.23
42.8	1047.6
43	1083.73
43.2	1228.23
43.4	1481.1
43.6	1354.66
43.8	1155.98
44	1246.29
44.2	1137.92
44.4	1047.6
44.6	939.232
44.8	1119.85
45	866.983
45.2	1029.54
45.4	1011.48
45.6	1228.23
45.8	848.921
46	957.294
46.2	1047.6
46.4	848.921
46.6	812.797
46.8	993.418
47	1011.48
47.2	957.294
47.4	975.356
47.6	993.418
47.8	885.045
48	740.548
48.2	866.983
48.4	957.294
48.6	957.294
48.8	758.61
49	957.294
49.2	993.418
49.4	848.921
49.6	812.797
49.8	794.734
50	975.356
50.2	722.486
50.4	686.362
50.6	740.548
50.8	650.237
51	848.921
51.2	758.61
51.4	668.299
51.6	776.672
51.8	957.294
52	722.486
52.2	776.672
52.4	993.418
52.6	704.424
52.8	903.107
53	776.672
53.2	541.864
53.4	668.299
53.6	505.74
53.8	632.175
54	668.299
54.2	523.802
54.4	921.169
54.6	632.175
54.8	614.113
55	505.74
55.2	668.299
55.4	758.61
55.6	776.672
55.8	505.74
56	650.237
56.2	541.864
56.4	740.548
56.6	704.424
56.8	415.429
57	758.61
57.2	812.797
57.4	776.672
57.6	632.175
57.8	668.299
58	650.237
58.2	758.61
58.4	614.113
58.6	704.424
58.8	451.554
59	704.424
59.2	577.989
59.4	704.424
59.6	650.237
59.8	523.802
60	668.299
60	505.74