File: program/database/experiments/MU/xrd/1102/parallel/1018/xrd/25.TXT
Sample
Comments
Filename	C:\Data\西出研\梅木\20211102オペ\LiFTFSI30wt_01_0001_0029-1_C_2θ.raw
Goniometer	SmartLab(In-plane)
Attachment	標準Zステージ
Monochromater	None
X	0
Y	0
Z	0.01652
ScanningMode	2Theta
ScanningType	Continuos Scanning
X-Ray	40kV/30mA
入射スリット	0.300mm
受光スリット1	20.000mm
受光スリット2	20.000mm
None
Start	5
Stop	60
Step	0.02
Speed	21.6746
Theta	0
5	5545.08
5.2	5256.08
5.4	6430.12
5.6	5545.08
5.8	5725.7
6	4804.53
6.2	5057.4
6.4	4930.97
6.6	4876.78
6.8	5436.71
7	5219.96
7.2	4804.53
7.4	5111.59
7.6	4768.41
7.8	4551.66
8	4533.6
8.2	5003.21
8.4	5436.71
8.6	4696.16
8.8	4750.34
9	4750.34
9.2	4569.72
9.4	4118.17
9.6	4298.79
9.8	4443.29
10	5219.96
10.2	4587.79
10.4	4840.66
10.6	4009.8
10.8	4894.84
11	4696.16
11.2	4678.1
11.4	4262.67
11.6	4208.48
11.8	4352.98
12	4750.34
12.2	4389.1
12.4	4425.23
12.6	4154.29
12.8	4623.91
13	4515.54
13.2	4045.92
13.4	4154.29
13.6	4262.67
13.8	4190.42
14	4118.17
14.2	4244.6
14.4	4082.05
14.6	4118.17
14.8	3955.61
15	4226.54
15.2	4045.92
15.4	3666.62
15.6	3630.49
15.8	4208.48
16	4136.23
16.2	3829.18
16.4	3485.99
16.6	4280.73
16.8	3558.24
17	4443.29
17.2	4479.41
17.4	4822.59
17.6	4461.35
17.8	3738.86
18	3793.05
18.2	6357.88
18.4	5165.77
18.6	3865.3
18.8	4154.29
19	5779.89
19.2	5852.14
19.4	5147.71
19.6	4172.36
19.8	4136.23
20	3540.18
20.2	3558.24
20.4	3594.37
20.6	3666.62
20.8	3648.55
21	3612.43
21.2	3702.74
21.4	3359.56
21.6	3883.36
21.8	3594.37
22	3413.75
22.2	3413.75
22.4	3233.12
22.6	3413.75
22.8	3395.68
23	3449.87
23.2	2871.88
23.4	3070.56
23.6	3142.81
23.8	3269.25
24	3774.99
24.2	3774.99
24.4	3124.75
24.6	3124.75
24.8	3106.69
25	2582.89
25.2	2637.07
25.4	2619.01
25.6	2944.13
25.8	3305.37
26	4063.98
26.2	4967.09
26.4	2745.45
26.6	2510.64
26.8	2167.46
27	2167.46
27.2	2004.9
27.4	2059.08
27.6	1878.46
27.8	2420.33
28	2041.02
28.2	2221.64
28.4	2221.64
28.6	2348.08
28.8	1752.03
29	1932.65
29.2	2348.08
29.4	2456.45
29.6	2275.83
29.8	1860.4
30	2113.27
30.2	1715.9
30.4	2257.77
30.6	1752.03
30.8	1860.4
31	1643.66
31.2	1733.97
31.4	1372.72
31.6	1824.28
31.8	1733.97
32	1715.9
32.2	1932.65
32.4	1426.91
32.6	1318.54
32.8	1589.47
33	1607.53
33.2	1354.66
33.4	1390.79
33.6	1752.03
33.8	1282.41
34	1246.29
34.2	1210.16
34.4	1481.1
34.6	1408.85
34.8	1282.41
35	1318.54
35.2	1390.79
35.4	1300.47
35.6	1354.66
35.8	1300.47
36	1426.91
36.2	1372.72
36.4	1463.03
36.6	1174.04
36.8	1174.04
37	1192.1
37.2	1246.29
37.4	939.232
37.6	1228.23
37.8	1047.6
38	1499.16
38.2	1300.47
38.4	957.294
38.6	1228.23
38.8	1083.73
39	1083.73
39.2	1210.16
39.4	1264.35
39.6	903.107
39.8	1210.16
40	1192.1
40.2	1192.1
40.4	1246.29
40.6	921.169
40.8	1011.48
41	1047.6
41.2	1192.1
41.4	1065.67
41.6	1101.79
41.8	1137.92
42	1029.54
42.2	1047.6
42.4	1011.48
42.6	1101.79
42.8	885.045
43	1119.85
43.2	1119.85
43.4	903.107
43.6	993.418
43.8	1011.48
44	903.107
44.2	866.983
44.4	1119.85
44.6	921.169
44.8	1047.6
45	921.169
45.2	1101.79
45.4	830.859
45.6	668.299
45.8	1029.54
46	903.107
46.2	903.107
46.4	794.734
46.6	921.169
46.8	1083.73
47	921.169
47.2	830.859
47.4	1083.73
47.6	885.045
47.8	596.051
48	903.107
48.2	487.678
48.4	668.299
48.6	866.983
48.8	1083.73
49	614.113
49.2	794.734
49.4	505.74
49.6	794.734
49.8	776.672
50	794.734
50.2	722.486
50.4	632.175
50.6	722.486
50.8	632.175
51	921.169
51.2	650.237
51.4	668.299
51.6	487.678
51.8	740.548
52	559.927
52.2	794.734
52.4	487.678
52.6	614.113
52.8	523.802
53	632.175
53.2	541.864
53.4	632.175
53.6	903.107
53.8	541.864
54	451.554
54.2	415.429
54.4	758.61
54.6	559.927
54.8	541.864
55	596.051
55.2	614.113
55.4	668.299
55.6	469.616
55.8	650.237
56	686.362
56.2	614.113
56.4	686.362
56.6	650.237
56.8	433.492
57	704.424
57.2	776.672
57.4	650.237
57.6	614.113
57.8	523.802
58	686.362
58.2	379.305
58.4	505.74
58.6	469.616
58.8	686.362
59	559.927
59.2	632.175
59.4	559.927
59.6	523.802
59.8	433.492
60	614.113
60	668.299

60	812.797
59.98	379.305
60	270.932