File: program/database/experiments/MU/xrd/1102/parallel/1018/xrd/50.TXT
Sample
Comments
Filename	C:\Data\西出研\梅木\20211102オペ\LiFTFSI30wt_02_0002_0049-1_C_2θ.raw
Goniometer	SmartLab(In-plane)
Attachment	標準Zステージ
Monochromater	None
X	0
Y	0
Z	0.01652
ScanningMode	2Theta
ScanningType	Continuos Scanning
X-Ray	40kV/30mA
入射スリット	0.300mm
受光スリット1	20.000mm
受光スリット2	20.000mm
None
Start	5
Stop	60
Step	0.02
Speed	21.6746
Theta	0
5	5346.4
5.2	5238.02
5.4	6032.76
5.6	5563.14
5.8	5292.21
6	5003.21
6.2	4804.53
6.4	5075.46
6.6	4822.59
6.8	5219.96
7	4967.09
7.2	4551.66
7.4	4894.84
7.6	4696.16
7.8	4912.9
8	4804.53
8.2	5003.21
8.4	5256.08
8.6	5165.77
8.8	4678.1
9	4407.16
9.2	4768.41
9.4	4660.03
9.6	4804.53
9.8	4443.29
10	4930.97
10.2	4172.36
10.4	4858.72
10.6	3955.61
10.8	4334.92
11	4407.16
11.2	4623.91
11.4	4208.48
11.6	4082.05
11.8	4822.59
12	4009.8
12.2	4352.98
12.4	4280.73
12.6	4714.22
12.8	4479.41
13	5147.71
13.2	5165.77
13.4	3955.61
13.6	4786.47
13.8	4082.05
14	4352.98
14.2	4226.54
14.4	3811.11
14.6	4190.42
14.8	4280.73
15	3702.74
15.2	3901.42
15.4	4190.42
15.6	3702.74
15.8	3774.99
16	4461.35
16.2	4461.35
16.4	4352.98
16.6	4100.11
16.8	3702.74
17	3756.93
17.2	5454.77
17.4	4443.29
17.6	3774.99
17.8	3449.87
18	4280.73
18.2	6773.31
18.4	4967.09
18.6	3973.67
18.8	4118.17
19	6791.37
19.2	5743.76
19.4	5238.02
19.6	3973.67
19.8	4172.36
20	3793.05
20.2	3847.24
20.4	3720.8
20.6	3612.43
20.8	3485.99
21	3540.18
21.2	3395.68
21.4	3431.81
21.6	3973.67
21.8	3395.68
22	3106.69
22.2	3287.31
22.4	3088.63
22.6	2998.32
22.8	3269.25
23	3449.87
23.2	2944.13
23.4	2799.63
23.6	3142.81
23.8	3359.56
24	3793.05
24.2	3413.75
24.4	3413.75
24.6	3251.19
24.8	2944.13
25	2582.89
25.2	2871.88
25.4	2781.57
25.6	2962.19
25.8	3793.05
26	4226.54
26.2	4009.8
26.4	3142.81
26.6	2510.64
26.8	2059.08
27	2113.27
27.2	2438.39
27.4	2203.58
27.6	1950.71
27.8	2167.46
28	1770.09
28.2	2275.83
28.4	1733.97
28.6	2022.96
28.8	2004.9
29	1661.72
29.2	2113.27
29.4	2510.64
29.6	1896.53
29.8	1553.34
30	2022.96
30.2	1679.78
30.4	1517.22
30.6	1932.65
30.8	1679.78
31	2095.21
31.2	1679.78
31.4	1715.9
31.6	1517.22
31.8	1715.9
32	2059.08
32.2	1733.97
32.4	1661.72
32.6	1246.29
32.8	1553.34
33	1571.41
33.2	1571.41
33.4	1300.47
33.6	1192.1
33.8	1336.6
34	1408.85
34.2	1463.03
34.4	1192.1
34.6	1625.59
34.8	1065.67
35	1318.54
35.2	1155.98
35.4	1192.1
35.6	1318.54
35.8	1011.48
36	1246.29
36.2	1318.54
36.4	1264.35
36.6	1246.29
36.8	1065.67
37	1318.54
37.2	1264.35
37.4	1047.6
37.6	1192.1
37.8	1318.54
38	1029.54
38.2	1155.98
38.4	1029.54
38.6	1336.6
38.8	1354.66
39	1101.79
39.2	1155.98
39.4	1155.98
39.6	903.107
39.8	1029.54
40	1137.92
40.2	1047.6
40.4	1119.85
40.6	939.232
40.8	758.61
41	1101.79
41.2	1228.23
41.4	993.418
41.6	776.672
41.8	1119.85
42	1047.6
42.2	1011.48
42.4	1029.54
42.6	1119.85
42.8	1101.79
43	939.232
43.2	1318.54
43.4	1155.98
43.6	1101.79
43.8	993.418
44	993.418
44.2	1083.73
44.4	1029.54
44.6	812.797
44.8	957.294
45	993.418
45.2	1029.54
45.4	1119.85
45.6	1119.85
45.8	939.232
46	975.356
46.2	957.294
46.4	1011.48
46.6	975.356
46.8	1192.1
47	993.418
47.2	758.61
47.4	939.232
47.6	885.045
47.8	1011.48
48	921.169
48.2	776.672
48.4	812.797
48.6	794.734
48.8	740.548
49	704.424
49.2	668.299
49.4	650.237
49.6	776.672
49.8	866.983
50	794.734
50.2	632.175
50.4	866.983
50.6	722.486
50.8	668.299
51	650.237
51.2	758.61
51.4	812.797
51.6	794.734
51.8	614.113
52	523.802
52.2	704.424
52.4	559.927
52.6	722.486
52.8	686.362
53	487.678
53.2	686.362
53.4	577.989
53.6	523.802
53.8	596.051
54	541.864
54.2	686.362
54.4	686.362
54.6	650.237
54.8	668.299
55	523.802
55.2	632.175
55.4	686.362
55.6	650.237
55.8	487.678
56	830.859
56.2	668.299
56.4	686.362
56.6	577.989
56.8	577.989
57	307.056
57.2	704.424
57.4	397.367
57.6	487.678
57.8	523.802
58	415.429
58.2	596.051
58.4	505.74
58.6	740.548
58.8	577.989
59	505.74
59.2	559.927
59.4	632.175
59.6	650.237
59.8	523.802
60	505.74

270.932
59.96	469.616
59.98	379.305
60	361.243