File: program/database/experiments/MU/xrd/1102/parallel/1018/xrd/80.TXT
Sample
Comments
Filename	C:\Data\西出研\梅木\20211102オペ\LiFTFSI30wt_03_0003_0079-1_C_2θ.raw
Goniometer	SmartLab(In-plane)
Attachment	標準Zステージ
Monochromater	None
X	0
Y	0
Z	0.01652
ScanningMode	2Theta
ScanningType	Continuos Scanning
X-Ray	40kV/30mA
入射スリット	0.300mm
受光スリット1	20.000mm
受光スリット2	20.000mm
None
Start	5
Stop	60
Step	0.02
Speed	21.6746
Theta	0
5	5978.57
5.2	5888.26
5.4	5454.77
5.6	5490.89
5.8	5364.46
6	5274.15
6.2	5256.08
6.4	5021.28
6.6	4804.53
6.8	4930.97
7	5328.33
7.2	4858.72
7.4	4840.66
7.6	5165.77
7.8	4425.23
8	5346.4
8.2	4678.1
8.4	4208.48
8.6	5238.02
8.8	5093.53
9	4262.67
9.2	4443.29
9.4	4190.42
9.6	4533.6
9.8	4587.79
10	4280.73
10.2	4569.72
10.4	4732.28
10.6	4840.66
10.8	4641.97
11	4768.41
11.2	4461.35
11.4	4371.04
11.6	4316.85
11.8	4154.29
12	4786.47
12.2	4696.16
12.4	4461.35
12.6	4316.85
12.8	4425.23
13	4190.42
13.2	4605.85
13.4	4226.54
13.6	4226.54
13.8	3919.49
14	4082.05
14.2	4334.92
14.4	4172.36
14.6	4479.41
14.8	3702.74
15	3955.61
15.2	3829.18
15.4	4280.73
15.6	4298.79
15.8	3594.37
16	3720.8
16.2	4100.11
16.4	3937.55
16.6	3648.55
16.8	4497.47
17	4045.92
17.2	5779.89
17.4	3973.67
17.6	4118.17
17.8	3522.12
18	3973.67
18.2	6646.87
18.4	5888.26
18.6	3504.06
18.8	4461.35
19	5942.45
19.2	6466.25
19.4	4894.84
19.6	4949.03
19.8	3467.93
20	3901.42
20.2	3323.44
20.4	3847.24
20.6	3883.36
20.8	3865.3
21	3359.56
21.2	3485.99
21.4	4100.11
21.6	3738.86
21.8	3666.62
22	3666.62
22.2	3666.62
22.4	3648.55
22.6	3124.75
22.8	3106.69
23	3251.19
23.2	3467.93
23.4	3251.19
23.6	3955.61
23.8	3937.55
24	4063.98
24.2	3558.24
24.4	3178.94
24.6	2998.32
24.8	2835.76
25	2799.63
25.2	2781.57
25.4	3034.44
25.6	2528.7
25.8	3522.12
26	4623.91
26.2	3413.75
26.4	2474.51
26.6	1986.84
26.8	2402.27
27	2167.46
27.2	2257.77
27.4	2257.77
27.6	2004.9
27.8	2022.96
28	2456.45
28.2	2239.71
28.4	2221.64
28.6	1752.03
28.8	2131.33
29	1788.15
29.2	1679.78
29.4	2149.4
29.6	1914.59
29.8	2022.96
30	1571.41
30.2	1481.1
30.4	1535.28
30.6	1553.34
30.8	2167.46
31	1950.71
31.2	1625.59
31.4	1390.79
31.6	1643.66
31.8	1535.28
32	1535.28
32.2	1679.78
32.4	1481.1
32.6	1535.28
32.8	1589.47
33	1517.22
33.2	1246.29
33.4	1390.79
33.6	1372.72
33.8	1571.41
34	1499.16
34.2	1444.97
34.4	1354.66
34.6	1282.41
34.8	1228.23
35	1553.34
35.2	1444.97
35.4	1101.79
35.6	1174.04
35.8	1426.91
36	1354.66
36.2	1354.66
36.4	1192.1
36.6	1137.92
36.8	1264.35
37	1083.73
37.2	1300.47
37.4	1264.35
37.6	1264.35
37.8	1246.29
38	1065.67
38.2	1065.67
38.4	1192.1
38.6	1390.79
38.8	993.418
39	975.356
39.2	1174.04
39.4	957.294
39.6	1192.1
39.8	1047.6
40	1246.29
40.2	1228.23
40.4	1246.29
40.6	903.107
40.8	1119.85
41	1065.67
41.2	1264.35
41.4	1192.1
41.6	1119.85
41.8	1119.85
42	848.921
42.2	1192.1
42.4	939.232
42.6	1047.6
42.8	1228.23
43	957.294
43.2	1029.54
43.4	830.859
43.6	957.294
43.8	812.797
44	1174.04
44.2	848.921
44.4	993.418
44.6	812.797
44.8	903.107
45	885.045
45.2	993.418
45.4	975.356
45.6	1029.54
45.8	939.232
46	776.672
46.2	939.232
46.4	957.294
46.6	885.045
46.8	957.294
47	812.797
47.2	885.045
47.4	939.232
47.6	993.418
47.8	704.424
48	812.797
48.2	577.989
48.4	830.859
48.6	939.232
48.8	993.418
49	668.299
49.2	614.113
49.4	668.299
49.6	686.362
49.8	704.424
50	614.113
50.2	830.859
50.4	686.362
50.6	812.797
50.8	632.175
51	668.299
51.2	740.548
51.4	632.175
51.6	614.113
51.8	794.734
52	632.175
52.2	776.672
52.4	740.548
52.6	596.051
52.8	776.672
53	758.61
53.2	650.237
53.4	686.362
53.6	505.74
53.8	469.616
54	704.424
54.2	614.113
54.4	650.237
54.6	505.74
54.8	451.554
55	704.424
55.2	451.554
55.4	469.616
55.6	577.989
55.8	559.927
56	614.113
56.2	812.797
56.4	577.989
56.6	559.927
56.8	596.051
57	523.802
57.2	668.299
57.4	686.362
57.6	451.554
57.8	577.989
58	921.169
58.2	614.113
58.4	559.927
58.6	505.74
58.8	487.678
59	487.678
59.2	577.989
59.4	343.181
59.6	614.113
59.8	523.802
60	668.299
60	505.74