File: database/experiments/MU/xrd/1102/parallel/1101/xrd/120.TXT
Sample
Comments
Filename	C:\Data\西出研\梅木\20211102オペ\LiTFSI24wt_05_0005_0119-1_C_2θ.raw
Goniometer	SmartLab(In-plane)
Attachment	標準Zステージ
Monochromater	None
X	0
Y	0
Z	0.01756
ScanningMode	2Theta
ScanningType	Continuos Scanning
X-Ray	40kV/30mA
入射スリット	0.300mm
受光スリット1	20.000mm
受光スリット2	20.000mm
None
Start	5
Stop	60
Step	0.02
Speed	21.6746
Theta	0
5	8037.66
5.2	6827.49
5.4	6628.81
5.6	5942.45
5.8	6791.37
6	6646.87
6.2	6339.81
6.4	6141.13
6.6	5960.51
6.8	6339.81
7	6086.94
7.2	5671.51
7.4	6321.75
7.6	5725.7
7.8	5653.45
8	5599.27
8.2	5563.14
8.4	5256.08
8.6	5364.46
8.8	6177.25
9	5545.08
9.2	5942.45
9.4	5490.89
9.6	5689.58
9.8	5201.9
10	5942.45
10.2	5508.95
10.4	5201.9
10.6	5743.76
10.8	6990.05
11	5635.39
11.2	6412.06
11.4	5906.32
11.6	5581.2
11.8	5725.7
12	5599.27
12.2	6105.01
12.4	5653.45
12.6	5545.08
12.8	5888.26
13	5581.2
13.2	5653.45
13.4	5761.82
13.6	6068.88
13.8	5779.89
14	5689.58
14.2	5797.95
14.4	5743.76
14.6	5707.64
14.8	6267.56
15	5292.21
15.2	6141.13
15.4	5689.58
15.6	5472.83
15.8	5454.77
16	5454.77
16.2	5075.46
16.4	4804.53
16.6	4930.97
16.8	4876.78
17	6484.31
17.2	6213.38
17.4	5310.27
17.6	5129.65
17.8	4840.66
18	5147.71
18.2	5111.59
18.4	5003.21
18.6	4262.67
18.8	5057.4
19	8236.34
19.2	6195.32
19.4	5256.08
19.6	5021.28
19.8	4136.23
20	4840.66
20.2	5129.65
20.4	4244.6
20.6	4876.78
20.8	4407.16
21	4660.03
21.2	4389.1
21.4	4641.97
21.6	4822.59
21.8	4244.6
22	4100.11
22.2	3684.68
22.4	4244.6
22.6	3901.42
22.8	4768.41
23	5635.39
23.2	4027.86
23.4	3955.61
23.6	3467.93
23.8	3612.43
24	3558.24
24.2	3648.55
24.4	3829.18
24.6	6123.07
24.8	5165.77
25	3522.12
25.2	3594.37
25.4	3413.75
25.6	2799.63
25.8	3251.19
26	2691.26
26.2	3251.19
26.4	2745.45
26.6	2980.25
26.8	2546.76
27	2998.32
27.2	2582.89
27.4	2275.83
27.6	2619.01
27.8	2600.95
28	2311.95
28.2	2438.39
28.4	2420.33
28.6	2619.01
28.8	3124.75
29	2077.15
29.2	2348.08
29.4	2185.52
29.6	2330.02
29.8	1968.77
30	2185.52
30.2	2041.02
30.4	2185.52
30.6	2004.9
30.8	2275.83
31	2149.4
31.2	1914.59
31.4	2041.02
31.6	1878.46
31.8	2167.46
32	1499.16
32.2	1607.53
32.4	1824.28
32.6	1336.6
32.8	2402.27
33	2582.89
33.2	2691.26
33.4	2149.4
33.6	1860.4
33.8	1932.65
34	1860.4
34.2	1697.84
34.4	1824.28
34.6	2366.14
34.8	1661.72
35	1589.47
35.2	1643.66
35.4	1715.9
35.6	1932.65
35.8	1426.91
36	1444.97
36.2	1860.4
36.4	1354.66
36.6	1517.22
36.8	1878.46
37	1336.6
37.2	1426.91
37.4	1661.72
37.6	1806.21
37.8	2275.83
38	1986.84
38.2	1535.28
38.4	1408.85
38.6	1589.47
38.8	1499.16
39	1210.16
39.2	1336.6
39.4	1210.16
39.6	993.418
39.8	1228.23
40	1210.16
40.2	1246.29
40.4	1282.41
40.6	1372.72
40.8	1065.67
41	1246.29
41.2	1246.29
41.4	1264.35
41.6	1119.85
41.8	1282.41
42	1246.29
42.2	1264.35
42.4	1481.1
42.6	1228.23
42.8	1408.85
43	1228.23
43.2	1372.72
43.4	1065.67
43.6	1065.67
43.8	1697.84
44	1264.35
44.2	1264.35
44.4	1336.6
44.6	1192.1
44.8	1282.41
45	1318.54
45.2	975.356
45.4	1083.73
45.6	975.356
45.8	1047.6
46	740.548
46.2	1210.16
46.4	1083.73
46.6	1137.92
46.8	1210.16
47	1174.04
47.2	885.045
47.4	993.418
47.6	794.734
47.8	1137.92
48	1011.48
48.2	921.169
48.4	1011.48
48.6	1101.79
48.8	722.486
49	957.294
49.2	1029.54
49.4	1047.6
49.6	939.232
49.8	830.859
50	885.045
50.2	921.169
50.4	830.859
50.6	1047.6
50.8	993.418
51	866.983
51.2	1029.54
51.4	885.045
51.6	848.921
51.8	903.107
52	650.237
52.2	848.921
52.4	830.859
52.6	668.299
52.8	921.169
53	830.859
53.2	614.113
53.4	885.045
53.6	650.237
53.8	1029.54
54	776.672
54.2	704.424
54.4	939.232
54.6	740.548
54.8	794.734
55	848.921
55.2	650.237
55.4	885.045
55.6	668.299
55.8	632.175
56	650.237
56.2	650.237
56.4	577.989
56.6	668.299
56.8	722.486
57	559.927
57.2	848.921
57.4	812.797
57.6	614.113
57.8	541.864
58	577.989
58.2	740.548
58.4	758.61
58.6	614.113
58.8	451.554
59	433.492
59.2	812.797
59.4	614.113
59.6	794.734
59.8	650.237
60	614.113