File: database/experiments/MU/xrd/1102/parallel/1101/xrd/25.TXT
Sample
Comments
Filename	C:\Data\西出研\梅木\20211102オペ\LiTFSI24wt_01_0001_0030-2_C_2θ.raw
Goniometer	SmartLab(In-plane)
Attachment	標準Zステージ
Monochromater	None
X	0
Y	0
Z	0.01756
ScanningMode	2Theta
ScanningType	Continuos Scanning
X-Ray	40kV/30mA
入射スリット	0.300mm
受光スリット1	20.000mm
受光スリット2	20.000mm
None
Start	5
Stop	60
Step	0.02
Speed	21.6746
Theta	0
5	5942.45
5.2	6267.56
5.4	7279.05
5.6	6430.12
5.8	6755.24
6	6899.74
6.2	6321.75
6.4	6195.32
6.6	5689.58
6.8	6014.69
7	5996.63
7.2	6068.88
7.4	5635.39
7.6	6448.19
7.8	5508.95
8	5418.64
8.2	5834.07
8.4	5490.89
8.6	6086.94
8.8	5761.82
9	5635.39
9.2	5545.08
9.4	5725.7
9.6	5707.64
9.8	5852.14
10	5563.14
10.2	5852.14
10.4	5382.52
10.6	5671.51
10.8	7333.23
11	5508.95
11.2	5797.95
11.4	6014.69
11.6	5527.02
11.8	5219.96
12	6050.82
12.2	6068.88
12.4	5816.01
12.6	5924.38
12.8	5653.45
13	5906.32
13.2	5761.82
13.4	5581.2
13.6	5888.26
13.8	5996.63
14	5870.2
14.2	6285.63
14.4	5978.57
14.6	5454.77
14.8	5418.64
15	5111.59
15.2	5400.58
15.4	5256.08
15.6	5436.71
15.8	5490.89
16	5689.58
16.2	5075.46
16.4	5039.34
16.6	4985.15
16.8	5111.59
17	5165.77
17.2	7857.03
17.4	5129.65
17.6	4696.16
17.8	5219.96
18	5057.4
18.2	4967.09
18.4	5545.08
18.6	5256.08
18.8	4985.15
19	5978.57
19.2	7513.85
19.4	5219.96
19.6	5490.89
19.8	4858.72
20	4930.97
20.2	4425.23
20.4	4154.29
20.6	4479.41
20.8	4660.03
21	4623.91
21.2	4930.97
21.4	4714.22
21.6	4352.98
21.8	4443.29
22	4443.29
22.2	4118.17
22.4	4045.92
22.6	4172.36
22.8	4226.54
23	4244.6
23.2	4985.15
23.4	3504.06
23.6	4118.17
23.8	3919.49
24	3648.55
24.2	3594.37
24.4	3504.06
24.6	5075.46
24.8	4226.54
25	4822.59
25.2	3973.67
25.4	3142.81
25.6	3251.19
25.8	3197
26	2980.25
26.2	3088.63
26.4	2853.82
26.6	2673.2
26.8	2745.45
27	2745.45
27.2	2781.57
27.4	2889.94
27.6	2311.95
27.8	2637.07
28	2438.39
28.2	2293.89
28.4	2203.58
28.6	2546.76
28.8	2691.26
29	2998.32
29.2	2149.4
29.4	2384.2
29.6	2293.89
29.8	2113.27
30	1986.84
30.2	2456.45
30.4	2149.4
30.6	1788.15
30.8	2185.52
31	1733.97
31.2	1878.46
31.4	1679.78
31.6	2004.9
31.8	2257.77
32	2203.58
32.2	2275.83
32.4	2221.64
32.6	2149.4
32.8	1842.34
33	2022.96
33.2	2528.7
33.4	2763.51
33.6	1950.71
33.8	1842.34
34	1571.41
34.2	1824.28
34.4	1896.53
34.6	1788.15
34.8	2077.15
35	1535.28
35.2	1625.59
35.4	1733.97
35.6	1246.29
35.8	1643.66
36	1697.84
36.2	1679.78
36.4	1896.53
36.6	1463.03
36.8	1535.28
37	1697.84
37.2	1444.97
37.4	1408.85
37.6	1318.54
37.8	1643.66
38	1860.4
38.2	1806.21
38.4	2203.58
38.6	1932.65
38.8	1065.67
39	1354.66
39.2	1174.04
39.4	1444.97
39.6	1318.54
39.8	1535.28
40	1282.41
40.2	1318.54
40.4	1318.54
40.6	1210.16
40.8	1517.22
41	1119.85
41.2	1354.66
41.4	1264.35
41.6	1372.72
41.8	1282.41
42	993.418
42.2	1137.92
42.4	1210.16
42.6	1300.47
42.8	866.983
43	1065.67
43.2	1264.35
43.4	1264.35
43.6	1354.66
43.8	1101.79
44	1426.91
44.2	1155.98
44.4	1372.72
44.6	1210.16
44.8	993.418
45	1408.85
45.2	975.356
45.4	993.418
45.6	1101.79
45.8	812.797
46	722.486
46.2	957.294
46.4	1119.85
46.6	993.418
46.8	993.418
47	1101.79
47.2	1101.79
47.4	1300.47
47.6	848.921
47.8	975.356
48	975.356
48.2	957.294
48.4	1119.85
48.6	686.362
48.8	975.356
49	812.797
49.2	704.424
49.4	704.424
49.6	866.983
49.8	885.045
50	975.356
50.2	975.356
50.4	830.859
50.6	993.418
50.8	1011.48
51	903.107
51.2	1011.48
51.4	830.859
51.6	794.734
51.8	776.672
52	758.61
52.2	794.734
52.4	939.232
52.6	740.548
52.8	885.045
53	686.362
53.2	722.486
53.4	686.362
53.6	668.299
53.8	668.299
54	866.983
54.2	830.859
54.4	794.734
54.6	885.045
54.8	668.299
55	812.797
55.2	668.299
55.4	776.672
55.6	830.859
55.8	650.237
56	614.113
56.2	523.802
56.4	740.548
56.6	830.859
56.8	758.61
57	596.051
57.2	559.927
57.4	433.492
57.6	722.486
57.8	812.797
58	830.859
58.2	632.175
58.4	577.989
58.6	614.113
58.8	794.734
59	632.175
59.2	704.424
59.4	668.299
59.6	614.113
59.8	722.486
60	668.299

60	812.797
59.98	379.305
60	270.932