File: database/experiments/MU/xrd/1102/parallel/1101/xrd/50.TXT
Sample
Comments
Filename	C:\Data\西出研\梅木\20211102オペ\LiTFSI24wt_02_0002_0049-1_C_2θ.raw
Goniometer	SmartLab(In-plane)
Attachment	標準Zステージ
Monochromater	None
X	0
Y	0
Z	0.01756
ScanningMode	2Theta
ScanningType	Continuos Scanning
X-Ray	40kV/30mA
入射スリット	0.300mm
受光スリット1	20.000mm
受光スリット2	20.000mm
None
Start	5
Stop	60
Step	0.02
Speed	21.6746
Theta	0
5	6791.37
5.2	7170.67
5.4	6321.75
5.6	6520.44
5.8	6466.25
6	6195.32
6.2	6827.49
6.4	5996.63
6.6	6159.19
6.8	6105.01
7	5653.45
7.2	6050.82
7.4	6014.69
7.6	6231.44
7.8	5834.07
8	5761.82
8.2	5870.2
8.4	5924.38
8.6	5617.33
8.8	5382.52
9	5545.08
9.2	5870.2
9.4	5183.84
9.6	5816.01
9.8	5653.45
10	5292.21
10.2	5942.45
10.4	5599.27
10.6	6719.12
10.8	6863.62
11	5238.02
11.2	5779.89
11.4	5527.02
11.6	5960.51
11.8	5707.64
12	6159.19
12.2	5671.51
12.4	5816.01
12.6	5942.45
12.8	6177.25
13	6014.69
13.2	5508.95
13.4	5743.76
13.6	5563.14
13.8	5743.76
14	6014.69
14.2	5834.07
14.4	5942.45
14.6	6195.32
14.8	5942.45
15	5256.08
15.2	5725.7
15.4	5527.02
15.6	6430.12
15.8	5761.82
16	5563.14
16.2	5003.21
16.4	5274.15
16.6	5075.46
16.8	5238.02
17	5888.26
17.2	7857.03
17.4	5075.46
17.6	5021.28
17.8	4623.91
18	5129.65
18.2	4190.42
18.4	5545.08
18.6	4515.54
18.8	4696.16
19	5725.7
19.2	7549.98
19.4	4840.66
19.6	4389.1
19.8	5201.9
20	4876.78
20.2	4280.73
20.4	4678.1
20.6	4443.29
20.8	4208.48
21	3901.42
21.2	4750.34
21.4	4461.35
21.6	4786.47
21.8	4190.42
22	3793.05
22.2	4045.92
22.4	4316.85
22.6	4298.79
22.8	4262.67
23	4678.1
23.2	5039.34
23.4	4389.1
23.6	4118.17
23.8	3594.37
24	3955.61
24.2	3829.18
24.4	4136.23
24.6	5816.01
24.8	5201.9
25	4298.79
25.2	3233.12
25.4	2835.76
25.6	3558.24
25.8	3413.75
26	2998.32
26.2	3016.38
26.4	3178.94
26.6	2564.82
26.8	2673.2
27	2908.01
27.2	2673.2
27.4	2582.89
27.6	2799.63
27.8	2221.64
28	2655.14
28.2	2781.57
28.4	2438.39
28.6	2330.02
28.8	2619.01
29	2510.64
29.2	2149.4
29.4	2004.9
29.6	2330.02
29.8	2221.64
30	1932.65
30.2	2149.4
30.4	2239.71
30.6	2041.02
30.8	1986.84
31	2149.4
31.2	2149.4
31.4	2185.52
31.6	1932.65
31.8	2041.02
32	2167.46
32.2	1950.71
32.4	1968.77
32.6	1697.84
32.8	2059.08
33	2113.27
33.2	3034.44
33.4	3016.38
33.6	2077.15
33.8	1878.46
34	1589.47
34.2	1842.34
34.4	1878.46
34.6	1535.28
34.8	1860.4
35	1752.03
35.2	1697.84
35.4	2022.96
35.6	1372.72
35.8	1444.97
36	1733.97
36.2	1408.85
36.4	1643.66
36.6	1463.03
36.8	1643.66
37	1336.6
37.2	1481.1
37.4	1571.41
37.6	1246.29
37.8	1444.97
38	2095.21
38.2	2257.77
38.4	1824.28
38.6	1535.28
38.8	1625.59
39	1463.03
39.2	1300.47
39.4	1607.53
39.6	1119.85
39.8	1228.23
40	1499.16
40.2	1119.85
40.4	1047.6
40.6	1246.29
40.8	1444.97
41	1444.97
41.2	1174.04
41.4	1155.98
41.6	1174.04
41.8	1354.66
42	1192.1
42.2	1083.73
42.4	1481.1
42.6	1174.04
42.8	1372.72
43	1210.16
43.2	1426.91
43.4	1029.54
43.6	1192.1
43.8	1246.29
44	1372.72
44.2	1300.47
44.4	1535.28
44.6	1083.73
44.8	957.294
45	1246.29
45.2	1155.98
45.4	957.294
45.6	1101.79
45.8	740.548
46	1119.85
46.2	1228.23
46.4	993.418
46.6	1011.48
46.8	939.232
47	921.169
47.2	1047.6
47.4	1228.23
47.6	1029.54
47.8	1065.67
48	1174.04
48.2	1101.79
48.4	1065.67
48.6	1029.54
48.8	993.418
49	885.045
49.2	975.356
49.4	740.548
49.6	758.61
49.8	776.672
50	921.169
50.2	830.859
50.4	668.299
50.6	866.983
50.8	957.294
51	903.107
51.2	848.921
51.4	957.294
51.6	794.734
51.8	650.237
52	614.113
52.2	704.424
52.4	451.554
52.6	758.61
52.8	957.294
53	722.486
53.2	722.486
53.4	848.921
53.6	812.797
53.8	722.486
54	704.424
54.2	1083.73
54.4	505.74
54.6	776.672
54.8	812.797
55	487.678
55.2	686.362
55.4	722.486
55.6	758.61
55.8	812.797
56	559.927
56.2	921.169
56.4	812.797
56.6	722.486
56.8	577.989
57	505.74
57.2	704.424
57.4	523.802
57.6	740.548
57.8	577.989
58	397.367
58.2	632.175
58.4	632.175
58.6	541.864
58.8	686.362
59	523.802
59.2	577.989
59.4	577.989
59.6	704.424
59.8	848.921
60	776.672
60	361.243