File: database/experiments/MU/xrd/1102/parallel/1101/xrd/80.TXT
Sample
Comments
Filename	C:\Data\西出研\梅木\20211102オペ\LiTFSI24wt_03_0003_0079-1_C_2θ.raw
Goniometer	SmartLab(In-plane)
Attachment	標準Zステージ
Monochromater	None
X	0
Y	0
Z	0.01756
ScanningMode	2Theta
ScanningType	Continuos Scanning
X-Ray	40kV/30mA
入射スリット	0.300mm
受光スリット1	20.000mm
受光スリット2	20.000mm
None
Start	5
Stop	60
Step	0.02
Speed	21.6746
Theta	0
5	7242.92
5.2	6773.31
5.4	6664.93
5.6	6592.68
5.8	6664.93
6	6105.01
6.2	6394
6.4	6141.13
6.6	6484.31
6.8	6520.44
7	6448.19
7.2	6086.94
7.4	6574.62
7.6	6520.44
7.8	5382.52
8	5779.89
8.2	5364.46
8.4	5978.57
8.6	5545.08
8.8	5852.14
9	5238.02
9.2	6123.07
9.4	5346.4
9.6	6159.19
9.8	5527.02
10	5563.14
10.2	5743.76
10.4	5238.02
10.6	6592.68
10.8	6845.55
11	6068.88
11.2	5165.77
11.4	5581.2
11.6	6357.88
11.8	5256.08
12	5924.38
12.2	6159.19
12.4	5779.89
12.6	5816.01
12.8	5346.4
13	6502.37
13.2	5581.2
13.4	6105.01
13.6	6123.07
13.8	5111.59
14	6231.44
14.2	5834.07
14.4	5870.2
14.6	6159.19
14.8	6195.32
15	5779.89
15.2	5725.7
15.4	5924.38
15.6	5581.2
15.8	5996.63
16	5436.71
16.2	4949.03
16.4	5183.84
16.6	5364.46
16.8	4876.78
17	5852.14
17.2	6791.37
17.4	5201.9
17.6	5617.33
17.8	4894.84
18	4840.66
18.2	5129.65
18.4	5238.02
18.6	4912.9
18.8	4858.72
19	7297.11
19.2	7531.92
19.4	5581.2
19.6	5274.15
19.8	4894.84
20	4118.17
20.2	4515.54
20.4	4389.1
20.6	3973.67
20.8	4226.54
21	4696.16
21.2	4154.29
21.4	4461.35
21.6	4678.1
21.8	4136.23
22	4280.73
22.2	3865.3
22.4	4316.85
22.6	4298.79
22.8	4063.98
23	4912.9
23.2	4208.48
23.4	3973.67
23.6	3865.3
23.8	3811.11
24	3774.99
24.2	3937.55
24.4	3684.68
24.6	5581.2
24.8	5147.71
25	4063.98
25.2	3106.69
25.4	3305.37
25.6	3178.94
25.8	2908.01
26	3269.25
26.2	2926.07
26.4	3323.44
26.6	2781.57
26.8	2908.01
27	2293.89
27.2	2655.14
27.4	2600.95
27.6	2691.26
27.8	2600.95
28	2600.95
28.2	2564.82
28.4	2022.96
28.6	2456.45
28.8	2889.94
29	2600.95
29.2	1950.71
29.4	2366.14
29.6	1643.66
29.8	1932.65
30	2095.21
30.2	2330.02
30.4	2113.27
30.6	1932.65
30.8	1643.66
31	2059.08
31.2	1896.53
31.4	1860.4
31.6	2022.96
31.8	2004.9
32	2131.33
32.2	1806.21
32.4	2022.96
32.6	1860.4
32.8	1752.03
33	2366.14
33.2	2998.32
33.4	2366.14
33.6	1824.28
33.8	1733.97
34	1878.46
34.2	1715.9
34.4	1589.47
34.6	1571.41
34.8	1968.77
35	1806.21
35.2	1950.71
35.4	1770.09
35.6	1661.72
35.8	1481.1
36	1643.66
36.2	1517.22
36.4	1788.15
36.6	1463.03
36.8	1643.66
37	1770.09
37.2	1824.28
37.4	1517.22
37.6	1535.28
37.8	1788.15
38	2619.01
38.2	1950.71
38.4	1697.84
38.6	1119.85
38.8	1137.92
39	1589.47
39.2	1661.72
39.4	1282.41
39.6	1210.16
39.8	1408.85
40	1553.34
40.2	1065.67
40.4	1481.1
40.6	1535.28
40.8	1228.23
41	1553.34
41.2	1499.16
41.4	975.356
41.6	1083.73
41.8	1192.1
42	1083.73
42.2	1155.98
42.4	1101.79
42.6	1192.1
42.8	1444.97
43	1192.1
43.2	1083.73
43.4	1119.85
43.6	1463.03
43.8	1101.79
44	1354.66
44.2	1300.47
44.4	1607.53
44.6	1174.04
44.8	1065.67
45	1282.41
45.2	1210.16
45.4	1029.54
45.6	993.418
45.8	975.356
46	1011.48
46.2	1011.48
46.4	830.859
46.6	1300.47
46.8	1101.79
47	975.356
47.2	1264.35
47.4	1155.98
47.6	957.294
47.8	1119.85
48	1192.1
48.2	830.859
48.4	1065.67
48.6	939.232
48.8	993.418
49	758.61
49.2	686.362
49.4	993.418
49.6	921.169
49.8	921.169
50	830.859
50.2	848.921
50.4	993.418
50.6	1029.54
50.8	939.232
51	1029.54
51.2	866.983
51.4	632.175
51.6	921.169
51.8	668.299
52	686.362
52.2	830.859
52.4	722.486
52.6	704.424
52.8	704.424
53	686.362
53.2	758.61
53.4	704.424
53.6	812.797
53.8	885.045
54	993.418
54.2	722.486
54.4	740.548
54.6	740.548
54.8	812.797
55	848.921
55.2	794.734
55.4	686.362
55.6	993.418
55.8	614.113
56	686.362
56.2	740.548
56.4	596.051
56.6	686.362
56.8	686.362
57	541.864
57.2	668.299
57.4	596.051
57.6	596.051
57.8	614.113
58	776.672
58.2	668.299
58.4	686.362
58.6	632.175
58.8	668.299
59	686.362
59.2	740.548
59.4	577.989
59.6	740.548
59.8	776.672
60	794.734
60	505.74