File: database/experiments/MU/battery/922(806)/data/05.txt
Sept. 23, 2021   19:50:59
Chronopotentiometry
File: c:\users\user\desktop\data\2021_m2\umeki\210923\cp05c.txt
Data Source:  Experiment
Instrument Model:  CHI760E
Header:
Note:

Cathodic Current (A) = 5.9e-4
Anodic Current (A) = 5.9e-4
Init P/N = N
Data Storage Interval (s) = 0.1
High E Limit (V) = 2.5
Low E Limit (V) = 1
Cathodic Time (s) = 10
Anodic Time (s) = 10
Current Switching Polarity = Potential
Segment = 3

Time/sec, Potential/V

1.000e-1, 1.617e+0
1.200e+1, 1.554e+0
2.390e+1, 1.500e+0
3.580e+1, 1.428e+0
4.770e+1, 1.315e+0
5.960e+1, 1.070e+0
7.150e+1, 1.885e+0
8.340e+1, 1.910e+0
9.530e+1, 1.928e+0
1.072e+2, 1.941e+0
1.191e+2, 1.952e+0
1.310e+2, 1.961e+0
1.429e+2, 1.969e+0
1.548e+2, 1.975e+0
1.667e+2, 1.979e+0
1.786e+2, 1.982e+0
1.905e+2, 1.985e+0
2.024e+2, 1.987e+0
2.143e+2, 1.989e+0
2.262e+2, 1.990e+0
2.381e+2, 1.991e+0
2.500e+2, 1.993e+0
2.619e+2, 1.994e+0
2.738e+2, 1.995e+0
2.857e+2, 1.996e+0
2.976e+2, 1.998e+0
3.095e+2, 1.999e+0
3.214e+2, 2.000e+0
3.333e+2, 2.001e+0
3.452e+2, 2.001e+0
3.571e+2, 2.002e+0
3.690e+2, 2.003e+0
3.809e+2, 2.004e+0
3.928e+2, 2.005e+0
4.047e+2, 2.005e+0
4.166e+2, 2.006e+0
4.285e+2, 2.007e+0
4.404e+2, 2.008e+0
4.523e+2, 2.008e+0
4.642e+2, 2.009e+0
4.761e+2, 2.010e+0
4.880e+2, 2.010e+0
4.999e+2, 2.011e+0
5.118e+2, 2.011e+0
5.237e+2, 2.012e+0
5.356e+2, 2.012e+0
5.475e+2, 2.013e+0
5.594e+2, 2.013e+0
5.713e+2, 2.014e+0
5.832e+2, 2.014e+0
5.951e+2, 2.015e+0
6.070e+2, 2.015e+0
6.189e+2, 2.016e+0
6.308e+2, 2.016e+0
6.427e+2, 2.017e+0
6.546e+2, 2.017e+0
6.665e+2, 2.018e+0
6.784e+2, 2.018e+0
6.903e+2, 2.019e+0
7.022e+2, 2.019e+0
7.141e+2, 2.020e+0
7.260e+2, 2.020e+0
7.379e+2, 2.021e+0
7.498e+2, 2.022e+0
7.617e+2, 2.022e+0
7.736e+2, 2.023e+0
7.855e+2, 2.024e+0
7.974e+2, 2.025e+0
8.092e+2, 2.026e+0
8.211e+2, 2.027e+0
8.330e+2, 2.028e+0
8.449e+2, 2.029e+0
8.568e+2, 2.030e+0
8.687e+2, 2.032e+0
8.806e+2, 2.033e+0
8.925e+2, 2.034e+0
9.044e+2, 2.036e+0
9.163e+2, 2.037e+0
9.282e+2, 2.039e+0
9.401e+2, 2.040e+0
9.520e+2, 2.042e+0
9.639e+2, 2.044e+0
9.758e+2, 2.046e+0
9.877e+2, 2.048e+0
9.996e+2, 2.050e+0
1.012e+3, 2.052e+0
1.023e+3, 2.054e+0
1.035e+3, 2.056e+0
1.047e+3, 2.058e+0
1.059e+3, 2.061e+0
1.071e+3, 2.063e+0
1.083e+3, 2.065e+0
1.095e+3, 2.068e+0
1.107e+3, 2.070e+0
1.119e+3, 2.073e+0
1.130e+3, 2.075e+0
1.142e+3, 2.078e+0
1.154e+3, 2.080e+0
1.166e+3, 2.083e+0
1.178e+3, 2.086e+0
1.190e+3, 2.088e+0
1.202e+3, 2.091e+0
1.214e+3, 2.094e+0
1.226e+3, 2.097e+0
1.238e+3, 2.100e+0
1.249e+3, 2.103e+0
1.261e+3, 2.106e+0
1.273e+3, 2.109e+0
1.285e+3, 2.112e+0
1.297e+3, 2.115e+0
1.309e+3, 2.118e+0
1.321e+3, 2.121e+0
1.333e+3, 2.124e+0
1.345e+3, 2.128e+0
1.357e+3, 2.131e+0
1.368e+3, 2.134e+0
1.380e+3, 2.138e+0
1.392e+3, 2.141e+0
1.404e+3, 2.145e+0
1.416e+3, 2.149e+0
1.428e+3, 2.153e+0
1.440e+3, 2.157e+0
1.452e+3, 2.161e+0
1.464e+3, 2.164e+0
1.475e+3, 2.168e+0
1.487e+3, 2.172e+0
1.499e+3, 2.176e+0
1.511e+3, 2.180e+0
1.523e+3, 2.184e+0
1.535e+3, 2.188e+0
1.547e+3, 2.192e+0
1.559e+3, 2.197e+0
1.571e+3, 2.201e+0
1.583e+3, 2.205e+0
1.594e+3, 2.210e+0
1.606e+3, 2.215e+0
1.618e+3, 2.220e+0
1.630e+3, 2.225e+0
1.642e+3, 2.230e+0
1.654e+3, 2.235e+0
1.666e+3, 2.241e+0
1.678e+3, 2.247e+0
1.690e+3, 2.253e+0
1.702e+3, 2.260e+0
1.713e+3, 2.267e+0
1.725e+3, 2.275e+0
1.737e+3, 2.283e+0
1.749e+3, 2.291e+0
1.761e+3, 2.301e+0
1.773e+3, 2.312e+0
1.785e+3, 2.324e+0
1.797e+3, 2.338e+0
1.809e+3, 2.353e+0
1.821e+3, 2.371e+0
1.832e+3, 2.390e+0
1.844e+3, 2.413e+0
1.856e+3, 2.439e+0
1.868e+3, 2.470e+0
1.880e+3, 2.013e+0
1.892e+3, 1.863e+0
1.904e+3, 1.814e+0
1.916e+3, 1.787e+0
1.928e+3, 1.770e+0
1.939e+3, 1.758e+0
1.951e+3, 1.750e+0
1.963e+3, 1.745e+0
1.975e+3, 1.740e+0
1.987e+3, 1.737e+0
1.999e+3, 1.735e+0
2.011e+3, 1.733e+0
2.023e+3, 1.731e+0
2.035e+3, 1.730e+0
2.047e+3, 1.729e+0
2.058e+3, 1.728e+0
2.070e+3, 1.727e+0
2.082e+3, 1.726e+0
2.094e+3, 1.725e+0
2.106e+3, 1.724e+0
2.118e+3, 1.724e+0
2.130e+3, 1.723e+0
2.142e+3, 1.722e+0
2.154e+3, 1.721e+0
2.166e+3, 1.721e+0
2.178e+3, 1.720e+0
2.189e+3, 1.719e+0
2.201e+3, 1.718e+0
2.213e+3, 1.718e+0
2.225e+3, 1.717e+0
2.237e+3, 1.716e+0
2.249e+3, 1.716e+0
2.261e+3, 1.715e+0
2.273e+3, 1.715e+0
2.285e+3, 1.714e+0
2.297e+3, 1.713e+0
2.309e+3, 1.713e+0
2.321e+3, 1.712e+0
2.332e+3, 1.712e+0
2.344e+3, 1.711e+0
2.356e+3, 1.711e+0
2.368e+3, 1.710e+0
2.380e+3, 1.709e+0
2.392e+3, 1.709e+0
2.404e+3, 1.708e+0
2.416e+3, 1.708e+0
2.428e+3, 1.707e+0
2.440e+3, 1.707e+0
2.452e+3, 1.706e+0
2.463e+3, 1.706e+0
2.475e+3, 1.705e+0
2.487e+3, 1.705e+0
2.499e+3, 1.704e+0
2.511e+3, 1.704e+0
2.523e+3, 1.703e+0
2.535e+3, 1.703e+0
2.547e+3, 1.702e+0
2.559e+3, 1.702e+0
2.571e+3, 1.701e+0
2.583e+3, 1.701e+0
2.594e+3, 1.700e+0
2.606e+3, 1.700e+0
2.618e+3, 1.699e+0
2.630e+3, 1.698e+0
2.642e+3, 1.698e+0
2.654e+3, 1.697e+0
2.666e+3, 1.696e+0
2.678e+3, 1.695e+0
2.690e+3, 1.695e+0
2.702e+3, 1.694e+0
2.714e+3, 1.693e+0
2.726e+3, 1.692e+0
2.737e+3, 1.690e+0
2.749e+3, 1.689e+0
2.761e+3, 1.688e+0
2.773e+3, 1.686e+0
2.785e+3, 1.685e+0
2.797e+3, 1.683e+0
2.809e+3, 1.682e+0
2.821e+3, 1.680e+0
2.833e+3, 1.678e+0
2.845e+3, 1.676e+0
2.857e+3, 1.674e+0
2.868e+3, 1.672e+0
2.880e+3, 1.670e+0
2.892e+3, 1.668e+0
2.904e+3, 1.665e+0
2.916e+3, 1.663e+0
2.928e+3, 1.660e+0
2.940e+3, 1.657e+0
2.952e+3, 1.655e+0
2.964e+3, 1.652e+0
2.976e+3, 1.649e+0
2.988e+3, 1.646e+0
2.999e+3, 1.643e+0
3.011e+3, 1.640e+0
3.023e+3, 1.637e+0
3.035e+3, 1.634e+0
3.047e+3, 1.632e+0
3.059e+3, 1.629e+0
3.071e+3, 1.626e+0
3.083e+3, 1.623e+0
3.095e+3, 1.619e+0
3.107e+3, 1.616e+0
3.119e+3, 1.613e+0
3.131e+3, 1.610e+0
3.142e+3, 1.607e+0
3.154e+3, 1.604e+0
3.166e+3, 1.600e+0
3.178e+3, 1.597e+0
3.190e+3, 1.594e+0
3.202e+3, 1.590e+0
3.214e+3, 1.587e+0
3.226e+3, 1.583e+0
3.238e+3, 1.579e+0
3.250e+3, 1.575e+0
3.262e+3, 1.571e+0
3.273e+3, 1.566e+0
3.285e+3, 1.562e+0
3.297e+3, 1.557e+0
3.309e+3, 1.551e+0
3.321e+3, 1.546e+0
3.333e+3, 1.540e+0
3.345e+3, 1.534e+0
3.357e+3, 1.528e+0
3.369e+3, 1.521e+0
3.381e+3, 1.514e+0
3.393e+3, 1.506e+0
3.404e+3, 1.497e+0
3.416e+3, 1.488e+0
3.428e+3, 1.477e+0
3.440e+3, 1.466e+0
3.452e+3, 1.453e+0
3.464e+3, 1.438e+0
3.476e+3, 1.421e+0
3.488e+3, 1.400e+0
3.500e+3, 1.375e+0
3.512e+3, 1.343e+0
3.524e+3, 1.301e+0
3.535e+3, 1.243e+0
3.547e+3, 1.166e+0
3.559e+3, 1.067e+0
3.566e+3, 1.001e+0